time (s)	coil I (A)	last det (V)	int current (uC)
3048.844508	1.114296	0.157459	498.090149
3048.845400	0.687997	0.157459	1111.783325
3048.846359	0.088835	0.157459	1196.976562
3048.847276	0.085836	0.157459	1275.688354
3048.848171	0.085825	0.157459	1352.501953
3048.849059	0.085800	0.157459	1428.692017
3048.850021	0.085865	0.157459	1511.294556
3048.850918	0.085811	0.157459	1588.266602
3048.851806	0.085800	0.157459	1664.456665
3048.852735	0.085873	0.157459	1744.232544
3048.853643	0.085902	0.157459	1822.231689
3048.854542	0.085785	0.157459	1899.352295
3049.913117	1.168890	0.151420	608.991882
3049.914041	0.548126	0.151420	1115.460449
3049.914969	0.087612	0.151420	1196.764648
3049.915856	0.085770	0.151420	1272.842896
3049.916803	0.085840	0.151420	1354.133179
3049.917702	0.085752	0.151420	1431.224121
3049.918589	0.085719	0.151420	1507.256836
3049.919513	0.085756	0.151420	1586.494995
3049.920440	0.085807	0.151420	1666.037964
3049.921346	0.085741	0.151420	1743.719238
3049.922241	0.085745	0.151420	1820.460693
3049.923187	0.085825	0.151420	1901.651367
3050.928836	1.094454	0.165314	473.898712
3050.929814	0.596385	0.165314	1057.163696
3050.930726	0.088447	0.165314	1137.827637
3050.931651	0.085767	0.165314	1217.161743
3050.932537	0.085844	0.165314	1293.219116
3050.933488	0.085803	0.165314	1374.817993
3050.934383	0.085873	0.165314	1451.674194
3050.935276	0.085807	0.165314	1528.299805
3050.936214	0.085800	0.165314	1608.779785
3050.937116	0.085767	0.165314	1686.141235
3050.938039	0.085818	0.165314	1765.351074
3050.938926	0.085847	0.165314	1841.497559
3051.970770	1.114204	0.164569	494.706665
3051.971670	0.688715	0.164569	1114.549805
3051.972571	0.090381	0.164569	1195.982910
3051.973526	0.085803	0.164569	1277.925049
3051.974431	0.085854	0.164569	1355.623413
3051.975319	0.085858	0.164569	1431.865479
3051.976264	0.085814	0.164569	1512.959961
3051.977182	0.085873	0.164569	1591.791260
3051.978103	0.085781	0.164569	1670.795776
3051.978988	0.085825	0.164569	1746.751099
3051.979922	0.085876	0.164569	1826.959717
3051.980826	0.085763	0.164569	1904.489380
3053.008335	1.100801	0.150587	478.848328
3053.009271	0.681079	0.150587	1116.338379
3053.010202	0.088656	0.150587	1198.877075
3053.011107	0.085814	0.150587	1276.538940
3053.011995	0.085869	0.150587	1352.790771
3053.012936	0.085884	0.150587	1433.607422
3053.013844	0.085854	0.150587	1511.563354
3053.014759	0.085880	0.150587	1590.143677
3053.015645	0.085858	0.150587	1666.213989
3053.016586	0.085822	0.150587	1746.972046
3053.017481	0.085851	0.150587	1823.808594
3053.018396	0.085873	0.150587	1902.382202
3054.040029	1.114863	0.177198	497.229034
3054.040934	0.674795	0.177198	1107.918457
3054.041823	0.090168	0.177198	1188.078247
3054.042778	0.085796	0.177198	1270.013306
3054.043693	0.085800	0.177198	1348.519897
3054.044614	0.085796	0.177198	1427.537964
3054.045504	0.085800	0.177198	1503.899536
3054.046457	0.085829	0.177198	1585.694458
3054.047363	0.085726	0.177198	1663.362549
3054.048256	0.085836	0.177198	1740.014282
3054.049187	0.085906	0.177198	1819.992554
3054.050099	0.085829	0.177198	1898.268433
3055.064279	1.117639	0.145136	500.702301
3055.065180	0.679164	0.145136	1112.628906
3055.066123	0.088978	0.145136	1196.535400
3055.067028	0.085701	0.145136	1274.094482
3055.067952	0.085811	0.145136	1353.383423
3055.068843	0.085851	0.145136	1429.876465
3055.069784	0.085803	0.145136	1510.617310
3055.070678	0.085763	0.145136	1587.289429
3055.071565	0.085789	0.145136	1663.383911
3055.072491	0.085847	0.145136	1742.878418
3055.073398	0.085792	0.145136	1820.692017
3055.074314	0.085800	0.145136	1899.284424
3056.110326	1.150470	0.174636	555.677002
3056.111242	0.607002	0.174636	1111.690796
3056.112131	0.088890	0.174636	1190.714355
3056.113098	0.085814	0.174636	1273.696655
3056.113992	0.085785	0.174636	1350.388428
3056.114909	0.085833	0.174636	1429.096802
3056.115808	0.085734	0.174636	1506.171387
3056.116757	0.085825	0.174636	1587.619507
3056.117666	0.085814	0.174636	1665.624634
3056.118558	0.085796	0.174636	1742.154541
3056.119492	0.085800	0.174636	1822.291382
3056.120404	0.085807	0.174636	1900.547241
3057.121993	1.095476	0.145169	478.723022
3057.122971	0.593862	0.145169	1059.520264
3057.123880	0.088275	0.145169	1139.762329
3057.124806	0.085836	0.145169	1219.246582
3057.125692	0.085811	0.145169	1295.274658
3057.126646	0.085829	0.145169	1377.155396
3057.127566	0.085814	0.145169	1456.104492
3057.128453	0.085829	0.145169	1532.234741
3057.129387	0.085844	0.145169	1612.412598
3057.130297	0.085800	0.145169	1690.490234
3057.131213	0.085884	0.145169	1769.159790
3057.132106	0.085807	0.145169	1845.785400
3058.180832	1.116489	0.164891	504.653168
3058.181737	0.665566	0.164891	1106.990723
3058.182682	0.089663	0.164891	1191.722290
3058.183598	0.085712	0.164891	1270.234131
3058.184526	0.085767	0.164891	1349.825562
3058.185413	0.085803	0.164891	1425.932983
3058.186363	0.085774	0.164891	1507.418213
3058.187278	0.085770	0.164891	1585.897949
3058.188205	0.085792	0.164891	1665.427368
3058.189091	0.085785	0.164891	1741.432861
3058.190033	0.085748	0.164891	1822.207764
3058.190952	0.085865	0.164891	1901.118164
3059.188173	1.105433	0.144448	484.179810
3059.189113	0.665486	0.144448	1109.736572
3059.190031	0.088469	0.144448	1190.951294
3059.190953	0.085825	0.144448	1270.082153
3059.191844	0.085814	0.144448	1346.542603
3059.192788	0.085785	0.144448	1427.523560
3059.193705	0.085898	0.144448	1506.292480
3059.194625	0.085935	0.144448	1585.352783
3059.195516	0.085920	0.144448	1661.907837
3059.196463	0.085858	0.144448	1743.215454
3059.197375	0.085887	0.144448	1821.544800
3059.198272	0.085946	0.144448	1898.638428
3060.245459	1.118712	0.169467	497.826874
3060.246439	0.562401	0.169467	1048.979980
3060.247360	0.087858	0.169467	1129.896851
3060.248280	0.085825	0.169467	1208.856079
3060.249166	0.085814	0.169467	1284.887451
3060.250107	0.085876	0.169467	1365.697266
3060.251035	0.085803	0.169467	1445.322632
3060.251935	0.085796	0.169467	1522.538940
3060.252853	0.085745	0.169467	1601.252563
3060.253779	0.085774	0.169467	1680.679199
3060.254702	0.085858	0.169467	1759.926270
3060.255602	0.085800	0.169467	1837.145874
3061.255630	1.117419	0.142651	496.134247
3061.256611	0.576365	0.142651	1061.547974
3061.257534	0.087894	0.142651	1142.674438
3061.258423	0.085774	0.142651	1218.927490
3061.259342	0.085726	0.142651	1297.709961
3061.260279	0.085690	0.142651	1378.001221
3061.261194	0.085774	0.142651	1456.484375
3061.262090	0.085836	0.142651	1533.393555
3061.263030	0.085745	0.142651	1613.993530
3061.263969	0.085756	0.142651	1694.518066
3061.264884	0.085781	0.142651	1773.007935
3061.265773	0.085825	0.142651	1849.306519
3062.309320	1.101266	0.180545	482.354401
3062.310300	0.609540	0.180545	1079.703369
3062.311222	0.088173	0.180545	1160.998535
3062.312112	0.085778	0.180545	1237.340576
3062.313030	0.085807	0.180545	1316.111328
3062.313963	0.085851	0.180545	1396.210205
3062.314883	0.085781	0.180545	1475.128906
3062.315778	0.085825	0.180545	1551.942505
3062.316700	0.085796	0.180545	1631.046387
3062.317646	0.085781	0.180545	1712.195435
3062.318565	0.085785	0.180545	1791.031738
3062.319452	0.085778	0.180545	1867.116455
3063.328201	1.099413	0.148403	481.542847
3063.329095	0.699265	0.148403	1106.685791
3063.330066	0.088912	0.148403	1193.019653
3063.331006	0.085792	0.148403	1273.664307
3063.331923	0.085833	0.148403	1352.372681
3063.332813	0.085811	0.148403	1428.744019
3063.333768	0.085833	0.148403	1510.714111
3063.334713	0.085792	0.148403	1591.787720
3063.335613	0.085803	0.148403	1669.010620
3063.336526	0.085778	0.148403	1747.325562
3063.337453	0.085829	0.148403	1826.888916
3063.338378	0.085767	0.148403	1906.223022
3064.370405	1.139154	0.183583	520.593384
3064.371361	0.584198	0.183583	1079.086670
3064.372288	0.088059	0.183583	1160.717407
3064.373178	0.085741	0.183583	1237.026855
3064.374123	0.085884	0.183583	1318.187012
3064.375056	0.085887	0.183583	1398.319946
3064.375955	0.085811	0.183583	1475.463623
3064.376871	0.085785	0.183583	1554.042603
3064.377810	0.085814	0.183583	1634.622192
3064.378726	0.085719	0.183583	1713.140747
3064.379621	0.085854	0.183583	1789.980469
3064.380563	0.085840	0.183583	1870.841553
3065.399247	1.104628	0.147436	486.036133
3065.400144	0.693047	0.147436	1107.699219
3065.401109	0.088524	0.147436	1193.125000
3065.402020	0.085719	0.147436	1271.214966
3065.402919	0.085796	0.147436	1348.345459
3065.403850	0.085814	0.147436	1428.238525
3065.404755	0.085811	0.147436	1505.897095
3065.405661	0.085800	0.147436	1583.631470
3065.406551	0.085840	0.147436	1660.028931
3065.407477	0.085858	0.147436	1739.533569
3065.408387	0.085836	0.147436	1817.644531
3065.409288	0.085825	0.147436	1894.973022
3066.431201	1.121814	0.168025	503.694427
3066.432137	0.632197	0.168025	1095.431030
3066.433032	0.089172	0.168025	1175.240234
3066.433967	0.085869	0.168025	1255.527832
3066.434875	0.085800	0.168025	1333.433838
3066.435780	0.085803	0.168025	1411.085693
3066.436668	0.085807	0.168025	1487.282227
3066.437616	0.085847	0.168025	1568.665283
3066.438523	0.085734	0.168025	1646.425659
3066.439420	0.085844	0.168025	1723.427246
3066.440343	0.085880	0.168025	1802.694580
3066.441254	0.085935	0.168025	1880.981445
3067.467750	1.125883	0.151719	510.024780
3067.468688	0.621940	0.151719	1093.404175
3067.469580	0.088949	0.151719	1172.746704
3067.470505	0.085840	0.151719	1252.148560
3067.471419	0.085847	0.151719	1330.612915
3067.472315	0.085763	0.151719	1407.456543
3067.473206	0.085745	0.151719	1483.854980
3067.474150	0.085822	0.151719	1564.870483
3067.475052	0.085858	0.151719	1642.314575
3067.475948	0.085854	0.151719	1719.240234
3067.476865	0.085895	0.151719	1798.005737
3067.477795	0.085994	0.151719	1877.979858
3068.505555	1.104386	0.151586	491.451752
3068.506452	0.693988	0.151586	1113.958984
3068.507394	0.090410	0.151586	1199.125366
3068.508297	0.085715	0.151586	1276.526367
3068.509193	0.085789	0.151586	1353.392944
3068.510085	0.085833	0.151586	1429.955566
3068.511026	0.085876	0.151586	1510.765381
3068.511936	0.085803	0.151586	1588.846313
3068.512836	0.085862	0.151586	1666.121948
3068.513724	0.085818	0.151586	1742.328247
3068.514676	0.085847	0.151586	1824.054687
3068.515575	0.085759	0.151586	1901.152222
3069.521392	1.148584	0.172755	534.091553
3069.522302	0.629271	0.172755	1106.728271
3069.523224	0.088682	0.172755	1188.492798
3069.524117	0.085847	0.172755	1265.154297
3069.525080	0.085767	0.172755	1347.747559
3069.525977	0.085844	0.172755	1424.749146
3069.526867	0.085818	0.172755	1501.127075
3069.527806	0.085898	0.172755	1581.785645
3069.528719	0.085884	0.172755	1660.197510
3069.529633	0.085847	0.172755	1738.661865
3069.530523	0.085942	0.172755	1815.150635
3069.531452	0.085822	0.172755	1894.878784
3070.591204	1.126340	0.141555	527.127258
3070.592161	0.586047	0.141555	1087.974609
3070.593072	0.088081	0.141555	1168.216431
3070.593963	0.085836	0.141555	1244.696411
3070.594892	0.085895	0.141555	1324.492676
3070.595787	0.085844	0.141555	1401.322632
3070.596707	0.085822	0.141555	1480.278442
3070.597597	0.085858	0.141555	1556.692139
3070.598557	0.085756	0.141555	1639.017578
3070.599481	0.085774	0.141555	1718.272705
3070.600373	0.085833	0.141555	1794.835327
3070.601299	0.085829	0.141555	1874.312866
3071.572489	1.159479	0.163949	569.304077
3071.573422	0.574753	0.163949	1105.549072
3071.574309	0.088315	0.163949	1183.884888
3071.575231	0.085770	0.163949	1262.965088
3071.576170	0.085785	0.163949	1343.517090
3071.577088	0.085825	0.163949	1422.304565
3071.577987	0.085840	0.163949	1499.474609
3071.578940	0.085763	0.163949	1581.206665
3071.579874	0.085789	0.163949	1661.333252
3071.580772	0.085865	0.163949	1738.440430
3071.581689	0.085833	0.163949	1817.148804
3071.582624	0.085781	0.163949	1897.354248
3072.664273	1.104228	0.164347	486.964752
3072.665168	0.698621	0.164347	1112.230225
3072.666125	0.089341	0.164347	1197.729370
3072.667062	0.085748	0.164347	1278.075562
3072.667966	0.085833	0.164347	1355.668213
3072.668888	0.085807	0.164347	1434.782104
3072.669808	0.085807	0.164347	1513.724487
3072.670741	0.085862	0.164347	1593.833618
3072.671640	0.085796	0.164347	1670.964111
3072.672571	0.085924	0.164347	1750.959473
3072.673510	0.085748	0.164347	1831.477173
3072.674426	0.085814	0.164347	1910.083008
3073.649136	1.153868	0.139388	546.933655
3073.650084	0.559878	0.139388	1077.697998
3073.651012	0.087671	0.139388	1159.056641
3073.651906	0.085840	0.139388	1235.797485
3073.652831	0.085836	0.139388	1315.195923
3073.653772	0.085814	0.139388	1395.947144
3073.654696	0.085884	0.139388	1475.303711
3073.655583	0.085836	0.139388	1551.440430
3073.656529	0.085909	0.139388	1632.710693
3073.657425	0.085913	0.139388	1709.688843
3073.658332	0.085858	0.139388	1787.562134
3073.659224	0.085895	0.139388	1864.180298
3074.708931	1.092594	0.173319	470.908020
3074.709892	0.624694	0.173319	1071.238525
3074.710804	0.088711	0.173319	1152.142944
3074.711711	0.085854	0.173319	1230.012939
3074.712599	0.085840	0.173319	1306.238770
3074.713556	0.085876	0.173319	1388.422607
3074.714458	0.085840	0.173319	1465.850098
3074.715352	0.085844	0.173319	1542.594238
3074.716282	0.085917	0.173319	1622.496826
3074.717184	0.085939	0.173319	1700.013550
3074.718075	0.085844	0.173319	1776.500122
3074.718963	0.085858	0.173319	1852.742187
3075.739915	1.181814	0.141160	584.997925
3075.740832	0.575772	0.141160	1112.980469
3075.741731	0.088308	0.141160	1192.369507
3075.742617	0.085869	0.141160	1268.449585
3075.743545	0.085854	0.141160	1348.122559
3075.744453	0.085833	0.141160	1426.058472
3075.745348	0.085887	0.141160	1502.927734
3075.746276	0.085876	0.141160	1582.621094
3075.747182	0.085939	0.141160	1660.481567
3075.748090	0.085873	0.141160	1738.454102
3075.748979	0.085825	0.141160	1814.752686
3075.749931	0.085869	0.141160	1896.500122
3076.768962	1.097391	0.163216	476.267792
3076.769928	0.635057	0.163216	1089.733276
3076.770850	0.088048	0.163216	1170.913574
3076.771750	0.085701	0.163216	1248.044189
3076.772639	0.085752	0.163216	1324.277710
3076.773584	0.085844	0.163216	1405.399780
3076.774496	0.085811	0.163216	1483.658936
3076.775398	0.085858	0.163216	1561.103027
3076.776285	0.085818	0.163216	1637.223511
3076.777215	0.085792	0.163216	1717.010254
3076.778110	0.085745	0.163216	1793.751709
3076.778998	0.085767	0.163216	1869.912476
3077.797330	1.113285	0.165189	493.185242
3077.798238	0.683752	0.165189	1114.032471
3077.799124	0.090344	0.165189	1194.077515
3077.800070	0.085840	0.165189	1275.281982
3077.800978	0.085898	0.165189	1353.277710
3077.801878	0.085840	0.165189	1430.533569
3077.802763	0.085715	0.165189	1506.391602
3077.803702	0.085822	0.165189	1586.978027
3077.804609	0.085803	0.165189	1664.801514
3077.805495	0.085873	0.165189	1740.884766
3077.806428	0.085862	0.165189	1820.993896
3077.807337	0.085939	0.165189	1899.112183
3078.857441	1.127933	0.150929	515.465576
3078.858345	0.665848	0.150929	1117.392578
3078.859232	0.089952	0.150929	1197.180298
3078.860190	0.085917	0.150929	1279.488525
3078.861095	0.085778	0.150929	1357.117187
3078.861986	0.085924	0.150929	1433.675537
3078.862917	0.085844	0.150929	1513.595825
3078.863827	0.085865	0.150929	1591.733398
3078.864739	0.085807	0.150929	1669.989258
3078.865631	0.085924	0.150929	1746.633545
3078.866580	0.085906	0.150929	1828.158081
3078.867486	0.085862	0.150929	1905.948853
3079.841742	1.108568	0.161890	492.204285
3079.842633	0.685009	0.161890	1102.546875
3079.843590	0.089125	0.161890	1187.839233
3079.844491	0.085818	0.161890	1265.161133
3079.845379	0.085876	0.161890	1341.419434
3079.846317	0.085833	0.161890	1421.930298
3079.847225	0.085825	0.161890	1499.859619
3079.848130	0.085833	0.161890	1577.538086
3079.849024	0.085789	0.161890	1654.233032
3079.849983	0.085895	0.161890	1736.606079
3079.850891	0.085785	0.161890	1814.498779
3079.851795	0.085884	0.161890	1892.137695
3080.926463	1.121140	0.170229	549.358643
3080.927395	0.582155	0.170229	1091.926758
3080.928285	0.088359	0.170229	1170.566650
3080.929170	0.085862	0.170229	1246.554321
3080.930117	0.085774	0.170229	1327.782227
3080.931022	0.085822	0.170229	1405.450684
3080.931938	0.085884	0.170229	1484.120239
3080.932836	0.085869	0.170229	1561.230713
3080.933785	0.085825	0.170229	1642.678833
3080.934688	0.085800	0.170229	1720.155884
3080.935582	0.085818	0.170229	1796.877075
3080.936509	0.085818	0.170229	1876.430298
3081.920741	1.119877	0.143859	512.903503
3081.921651	0.660341	0.143859	1113.813477
3081.922538	0.089894	0.143859	1193.549316
3081.923474	0.085792	0.143859	1273.850830
3081.924380	0.085748	0.143859	1351.538818
3081.925298	0.085829	0.143859	1430.329712
3081.926192	0.085778	0.143859	1507.014893
3081.927152	0.085858	0.143859	1589.438721
3081.928052	0.085913	0.143859	1666.760498
3081.928939	0.085873	0.143859	1742.929687
3081.929873	0.085876	0.143859	1823.138306
3081.930782	0.085840	0.143859	1901.166748
3082.972609	1.092513	0.180940	471.965820
3082.973579	0.639185	0.180940	1091.974854
3082.974484	0.088488	0.180940	1172.056030
3082.975408	0.085880	0.180940	1251.409302
3082.976299	0.085847	0.180940	1327.899170
3082.977252	0.085719	0.180940	1409.589355
3082.978173	0.085873	0.180940	1488.678223
3082.979078	0.085789	0.180940	1566.316895
3082.979980	0.085825	0.180940	1643.731201
3082.980924	0.085770	0.180940	1724.698364
3082.981847	0.085829	0.180940	1803.918457
3082.982740	0.085876	0.180940	1880.606201
3084.005348	1.146281	0.148838	535.312988
3084.006258	0.632585	0.148838	1110.965820
3084.007184	0.088608	0.148838	1193.017212
3084.008136	0.085800	0.148838	1274.698364
3084.009048	0.085862	0.148838	1353.004395
3084.009934	0.085825	0.148838	1429.045532
3084.010883	0.085774	0.148838	1510.444946
3084.011814	0.085778	0.148838	1590.303833
3084.012708	0.085876	0.148838	1667.077393
3084.013627	0.085844	0.148838	1745.967529
3084.014564	0.085697	0.148838	1826.265625
3084.015496	0.085770	0.148838	1906.203491
3085.032139	1.105210	0.166172	486.292389
3085.033037	0.686495	0.166172	1102.765259
3085.033990	0.089176	0.166172	1187.750000
3085.034926	0.085752	0.166172	1268.013794
3085.035854	0.085833	0.166172	1347.666382
3085.036752	0.085752	0.166172	1424.671631
3085.037698	0.085825	0.166172	1505.862305
3085.038627	0.085675	0.166172	1585.454468
3085.039526	0.085807	0.166172	1662.594849
3085.040442	0.085734	0.166172	1741.126831
3085.041370	0.085800	0.166172	1820.748779
3085.042299	0.085851	0.166172	1900.504150
3086.059994	1.117053	0.169302	497.088715
3086.060945	0.607947	0.169302	1075.246094
3086.061897	0.087931	0.169302	1158.956299
3086.062825	0.085789	0.169302	1238.568115
3086.063714	0.085767	0.169302	1314.814575
3086.064650	0.085818	0.169302	1395.140137
3086.065593	0.085792	0.169302	1476.042236
3086.066493	0.085789	0.169302	1553.251953
3086.067417	0.085752	0.169302	1632.486816
3086.068352	0.085737	0.169302	1712.651245
3086.069271	0.085763	0.169302	1791.467407
3086.070165	0.085814	0.169302	1868.185303
3087.115984	1.099420	0.152847	480.446625
3087.116884	0.693076	0.152847	1104.215088
3087.117856	0.088806	0.152847	1190.534668
3087.118779	0.085807	0.152847	1269.734375
3087.119698	0.085869	0.152847	1348.648071
3087.120589	0.085814	0.152847	1425.108521
3087.121533	0.085833	0.152847	1506.134399
3087.122467	0.085807	0.152847	1586.278076
3087.123357	0.085891	0.152847	1662.721191
3087.124279	0.085854	0.152847	1741.879028
3087.125205	0.085876	0.152847	1821.400635
3087.126142	0.085807	0.152847	1901.801636
3088.111082	1.112340	0.173347	517.238159
3088.112017	0.606614	0.173347	1084.421997
3088.112908	0.088821	0.173347	1163.561279
3088.113827	0.085715	0.173347	1242.333618
3088.114770	0.085785	0.173347	1323.228760
3088.115690	0.085701	0.173347	1402.073364
3088.116577	0.085763	0.173347	1478.145142
3088.117508	0.085785	0.173347	1558.010864
3088.118437	0.085785	0.173347	1637.705078
3088.119347	0.085854	0.173347	1715.832642
3088.120235	0.085829	0.173347	1792.048706
3088.121186	0.085682	0.173347	1873.532593
3089.193419	1.106254	0.156142	484.539093
3089.194387	0.607848	0.156142	1072.935791
3089.195305	0.088114	0.156142	1153.824463
3089.196200	0.085792	0.156142	1230.608521
3089.197119	0.085800	0.156142	1309.458252
3089.198058	0.085778	0.156142	1390.003418
3089.198993	0.085847	0.156142	1470.270508
3089.199895	0.085770	0.156142	1547.635254
3089.200810	0.085792	0.156142	1626.135132
3089.201741	0.085789	0.156142	1706.004272
3089.202660	0.085840	0.156142	1784.891113
3089.203549	0.085759	0.156142	1861.131104
3090.173388	1.114955	0.157205	490.580139
3090.174370	0.562936	0.157205	1043.383057
3090.175290	0.087737	0.157205	1124.100952
3090.176182	0.085745	0.157205	1200.585205
3090.177099	0.085829	0.157205	1279.290283
3090.178038	0.085840	0.157205	1359.893921
3090.178960	0.085759	0.157205	1438.963989
3090.179849	0.085778	0.157205	1515.220215
3090.180788	0.085792	0.157205	1595.779175
3090.181730	0.085734	0.157205	1676.540283
3090.182621	0.085789	0.157205	1752.977905
3090.183536	0.085818	0.157205	1831.501221
3091.253450	1.105360	0.170660	487.463837
3091.254432	0.598667	0.170660	1075.354736
3091.255354	0.087916	0.170660	1156.413574
3091.256241	0.085756	0.170660	1232.478760
3091.257154	0.085726	0.170660	1310.746826
3091.258092	0.085708	0.170660	1391.140991
3091.259009	0.085763	0.170660	1469.785645
3091.259903	0.085789	0.170660	1546.480591
3091.260855	0.085737	0.170660	1628.102539
3091.261798	0.085708	0.170660	1708.925171
3091.262702	0.085734	0.170660	1786.428345
3091.263614	0.085671	0.170660	1864.560669
3092.251371	1.115317	0.146152	525.314453
3092.252285	0.627231	0.146152	1098.604004
3092.253176	0.089110	0.146152	1178.001099
3092.254132	0.085734	0.146152	1259.962402
3092.255049	0.085767	0.146152	1338.610352
3092.255972	0.085759	0.146152	1417.766113
3092.256864	0.085770	0.146152	1494.273193
3092.257811	0.085693	0.146152	1575.424805
3092.258749	0.085778	0.146152	1655.884155
3092.259637	0.085752	0.146152	1732.031860
3092.260551	0.085756	0.146152	1810.412476
3092.261488	0.085759	0.146152	1890.768921
3093.306058	1.094839	0.177629	474.065216
3093.306997	0.659908	0.177629	1093.719238
3093.307919	0.088751	0.177629	1175.547852
3093.308840	0.085836	0.177629	1254.603027
3093.309737	0.085763	0.177629	1331.532349
3093.310681	0.085774	0.177629	1412.502930
3093.311609	0.085829	0.177629	1492.152100
3093.312508	0.085822	0.177629	1569.305664
3093.313421	0.085774	0.177629	1647.617310
3093.314364	0.085836	0.177629	1728.560791
3093.315277	0.085796	0.177629	1806.892456
3093.316160	0.085811	0.177629	1882.663208
3094.330612	1.125549	0.141664	529.008179
3094.331553	0.571868	0.141664	1067.135620
3094.332475	0.087920	0.141664	1148.197754
3094.333376	0.085712	0.141664	1225.423950
3094.334327	0.085800	0.141664	1307.019287
3094.335269	0.085836	0.141664	1387.876953
3094.336165	0.085825	0.141664	1464.776367
3094.337085	0.085814	0.141664	1543.725464
3094.338027	0.085785	0.141664	1624.534912
3094.338941	0.085833	0.141664	1702.985840
3094.339831	0.085770	0.141664	1779.321411
3094.340786	0.085836	0.141664	1861.294922
3095.366085	1.097432	0.172489	475.187897
3095.367038	0.612697	0.172489	1059.087646
3095.367997	0.087949	0.172489	1143.430908
3095.368913	0.085862	0.172489	1222.080322
3095.369800	0.085876	0.172489	1298.252686
3095.370746	0.085876	0.172489	1379.491821
3095.371681	0.085778	0.172489	1459.693848
3095.372576	0.085840	0.172489	1536.520508
3095.373502	0.085833	0.172489	1616.001465
3095.374442	0.085858	0.172489	1696.708130
3095.375365	0.085741	0.172489	1775.847046
3095.376254	0.085942	0.172489	1852.249878
3096.402632	1.103482	0.146675	483.324921
3096.403589	0.621207	0.146675	1077.820190
3096.404517	0.088206	0.146675	1159.674927
3096.405438	0.085752	0.146675	1238.652466
3096.406333	0.085778	0.146675	1315.423462
3096.407282	0.085756	0.146675	1396.805542
3096.408216	0.085785	0.146675	1476.928711
3096.409120	0.085800	0.146675	1554.491455
3096.410035	0.085756	0.146675	1632.957886
3096.410963	0.085814	0.146675	1712.593506
3096.411882	0.085822	0.146675	1791.463501
3096.412767	0.085759	0.146675	1867.360474
3097.432524	1.100585	0.169774	483.156708
3097.433510	0.603684	0.169774	1078.389160
3097.434436	0.087935	0.169774	1159.816528
3097.435326	0.085818	0.169774	1236.194458
3097.436255	0.085726	0.169774	1315.834229
3097.437171	0.085822	0.169774	1394.446777
3097.438113	0.085847	0.169774	1475.314819
3097.439013	0.085774	0.169774	1552.511353
3097.439930	0.085807	0.169774	1631.196289
3097.440869	0.085741	0.169774	1711.707031
3097.441800	0.085840	0.169774	1791.623901
3097.442697	0.085862	0.169774	1868.641968
3098.469580	1.110549	0.153608	488.641693
3098.470554	0.588541	0.153608	1061.880859
3098.471483	0.087740	0.153608	1143.391724
3098.472383	0.085811	0.153608	1220.621216
3098.473302	0.085865	0.153608	1299.531616
3098.474253	0.085770	0.153608	1381.099121
3098.475175	0.085865	0.153608	1460.267090
3098.476063	0.085800	0.153608	1536.457153
3098.477002	0.085763	0.153608	1616.988525
3098.477928	0.085851	0.153608	1696.486450
3098.478831	0.085818	0.153608	1773.979980
3098.479751	0.085895	0.153608	1853.003174
3099.499468	1.117958	0.169761	493.019348
3099.500468	0.562269	0.169761	1055.288696
3099.501387	0.087697	0.169761	1135.881836
3099.502277	0.085869	0.169761	1212.305420
3099.503192	0.085836	0.169761	1290.845581
3099.504119	0.085759	0.169761	1370.344482
3099.505034	0.085928	0.169761	1448.968384
3099.505930	0.085756	0.169761	1525.805420
3099.506881	0.085876	0.169761	1607.473877
3099.507813	0.085847	0.169761	1687.483398
3099.508716	0.085851	0.169761	1765.006714
3099.509642	0.085876	0.169761	1844.528320
3100.533992	1.116918	0.157060	513.782166
3100.534904	0.651702	0.157060	1108.134033
3100.535789	0.089711	0.157060	1187.527954
3100.536750	0.085723	0.157060	1269.907471
3100.537676	0.085840	0.157060	1349.395142
3100.538578	0.085789	0.157060	1426.776489
3100.539503	0.085756	0.157060	1506.100464
3100.540443	0.085840	0.157060	1586.789917
3100.541363	0.085796	0.157060	1665.722168
3100.542259	0.085792	0.157060	1742.592041
3100.543193	0.085844	0.157060	1822.769897
3100.544122	0.085818	0.157060	1902.494751
3101.564638	1.117093	0.170180	499.340759
3101.565534	0.685041	0.170180	1113.137939
3101.566497	0.089139	0.170180	1198.979248
3101.567414	0.085745	0.170180	1277.607056
3101.568307	0.085862	0.170180	1354.281616
3101.569220	0.085825	0.170180	1432.640015
3101.570152	0.085800	0.170180	1512.605225
3101.571079	0.085814	0.170180	1592.155029
3101.571977	0.085774	0.170180	1669.180054
3101.572902	0.085833	0.170180	1748.575073
3101.573842	0.085920	0.170180	1829.340210
3101.574753	0.085844	0.170180	1907.543701
3102.600160	1.126926	0.155292	507.116821
3102.601095	0.625301	0.155292	1091.773682
3102.601982	0.089282	0.155292	1170.967041
3102.602913	0.085854	0.155292	1250.897583
3102.603853	0.085778	0.155292	1331.528564
3102.604761	0.085844	0.155292	1409.474487
3102.605659	0.085876	0.155292	1486.591553
3102.606602	0.085844	0.155292	1567.541992
3102.607538	0.085887	0.155292	1647.932617
3102.608439	0.085862	0.155292	1725.294067
3102.609355	0.085887	0.155292	1803.966919
3102.610295	0.085840	0.155292	1884.656372
3103.631049	1.103632	0.171772	483.390656
3103.631948	0.689502	0.171772	1103.252930
3103.632927	0.088722	0.171772	1190.111694
3103.633862	0.085851	0.171772	1270.382202
3103.634761	0.085862	0.171772	1347.572021
3103.635678	0.085825	0.171772	1426.273682
3103.636613	0.085876	0.171772	1506.568115
3103.637532	0.085844	0.171772	1585.458252
3103.638420	0.085873	0.171772	1661.713257
3103.639361	0.085774	0.171772	1742.426514
3103.640303	0.085844	0.171772	1823.291138
3103.641207	0.085858	0.171772	1900.906860
3104.668110	1.104990	0.151441	485.090729
3104.669058	0.636416	0.151441	1088.413086
3104.670015	0.088268	0.151441	1172.885376
3104.670937	0.085865	0.151441	1252.053345
3104.671828	0.085862	0.151441	1328.556274
3104.672763	0.085789	0.151441	1408.768555
3104.673690	0.085745	0.151441	1488.253784
3104.674597	0.085836	0.151441	1566.107178
3104.675505	0.085803	0.151441	1644.016479
3104.676441	0.085884	0.151441	1724.403687
3104.677373	0.085800	0.151441	1804.368896
3104.678272	0.085869	0.151441	1881.565308
3105.700333	1.161160	0.175329	543.422791
3105.701274	0.585883	0.175329	1094.738281
3105.702172	0.088429	0.175329	1174.147461
3105.703130	0.085741	0.175329	1256.287354
3105.704064	0.085785	0.175329	1336.410400
3105.704957	0.085818	0.175329	1413.045776
3105.705881	0.085814	0.175329	1492.338135
3105.706814	0.085822	0.175329	1572.409668
3105.707734	0.085847	0.175329	1651.389038
3105.708627	0.085840	0.175329	1728.044067
3105.709575	0.085862	0.175329	1809.441040
3105.710502	0.085840	0.175329	1889.014526
3106.731717	1.096318	0.149801	475.802185
3106.732659	0.641968	0.149801	1080.535889
3106.733611	0.088312	0.149801	1164.608643
3106.734528	0.085807	0.149801	1243.293579
3106.735420	0.085726	0.149801	1319.761475
3106.736369	0.085745	0.149801	1401.133179
3106.737302	0.085818	0.149801	1481.201294
3106.738199	0.085880	0.149801	1558.235718
3106.739122	0.085734	0.149801	1637.367920
3106.740059	0.085825	0.149801	1717.786133
3106.740975	0.085811	0.149801	1796.388550
3106.741862	0.085778	0.149801	1872.473267
3107.770629	1.162504	0.181883	570.789246
3107.771527	0.611495	0.181883	1119.912109
3107.772468	0.088660	0.181883	1203.340820
3107.773401	0.085811	0.181883	1283.402100
3107.774313	0.085763	0.181883	1361.617920
3107.775211	0.085789	0.181883	1438.656006
3107.776154	0.085803	0.181883	1519.568481
3107.777086	0.085876	0.181883	1599.605347
3107.777985	0.085869	0.181883	1676.801758
3107.778912	0.085796	0.181883	1756.334595
3107.779854	0.085854	0.181883	1837.209473
3107.780770	0.085825	0.181883	1915.825317
3108.790478	1.101431	0.148879	484.629486
3108.791374	0.700104	0.148879	1111.922485
3108.792342	0.089070	0.148879	1198.142090
3108.793285	0.085898	0.148879	1279.144287
3108.794189	0.085829	0.148879	1356.733643
3108.795106	0.085789	0.148879	1435.401733
3108.796040	0.085833	0.148879	1515.569336
3108.796968	0.085756	0.148879	1595.150513
3108.797879	0.085869	0.148879	1673.377319
3108.798781	0.085895	0.148879	1750.854370
3108.799728	0.085811	0.148879	1832.116943
3108.800660	0.085774	0.148879	1912.058228
3109.846517	1.128149	0.180795	533.614685
3109.847421	0.633798	0.180795	1106.567627
3109.848312	0.089341	0.180795	1186.170288
3109.849262	0.085829	0.180795	1267.707764
3109.850207	0.085756	0.180795	1348.746826
3109.851110	0.085803	0.180795	1426.227173
3109.852027	0.085778	0.180795	1504.885254
3109.852963	0.085836	0.180795	1585.227905
3109.853910	0.085807	0.180795	1666.487061
3109.854810	0.085862	0.180795	1743.762695
3109.855731	0.085825	0.180795	1822.807739
3109.856644	0.085851	0.180795	1901.189575
3110.846947	1.118734	0.155533	507.905304
3110.847846	0.674648	0.155533	1114.414307
3110.848792	0.089945	0.155533	1199.502319
3110.849734	0.085723	0.155533	1280.253052
3110.850652	0.085785	0.155533	1359.003662
3110.851547	0.085785	0.155533	1435.781128
3110.852485	0.085756	0.155533	1516.219849
3110.853419	0.085756	0.155533	1596.315552
3110.854338	0.085763	0.155533	1675.131714
3110.855239	0.085792	0.155533	1752.430542
3110.856178	0.085745	0.155533	1832.944702
3110.857116	0.085759	0.155533	1913.386963
3111.921618	1.119155	0.171107	499.143250
3111.922594	0.588538	0.171107	1073.555908
3111.923507	0.088088	0.171107	1153.980591
3111.924425	0.085814	0.171107	1232.758057
3111.925321	0.085858	0.171107	1309.687012
3111.926274	0.085917	0.171107	1391.565674
3111.927172	0.085822	0.171107	1468.633423
3111.928074	0.085858	0.171107	1546.077515
3111.928961	0.085931	0.171107	1622.298706
3111.929911	0.085887	0.171107	1703.891724
3111.930817	0.085844	0.171107	1781.665894
3111.931711	0.085887	0.171107	1858.449219
3112.907977	1.109795	0.166168	486.090210
3112.908961	0.580638	0.166168	1057.438477
3112.909878	0.087968	0.166168	1138.104736
3112.910768	0.085756	0.166168	1214.427246
3112.911687	0.085822	0.166168	1293.297241
3112.912630	0.085770	0.166168	1374.178589
3112.913546	0.085792	0.166168	1452.764282
3112.914443	0.085851	0.166168	1529.772461
3112.915390	0.085759	0.166168	1610.986450
3112.916326	0.085822	0.166168	1691.315430
3112.917219	0.085858	0.166168	1767.986816
3112.918136	0.085891	0.166168	1846.749023
3113.988594	1.147925	0.157149	542.968445
3113.989525	0.590175	0.157149	1092.420898
3113.990451	0.088019	0.157149	1173.926270
3113.991344	0.085785	0.157149	1250.532227
3113.992306	0.085752	0.157149	1333.025635
3113.993243	0.085789	0.157149	1413.409546
3113.994141	0.085737	0.157149	1490.401611
3113.995058	0.085770	0.157149	1569.052979
3113.995995	0.085719	0.157149	1649.371704
3113.996923	0.085818	0.157149	1729.010742
3113.997819	0.085854	0.157149	1805.936401
3113.998779	0.085898	0.157149	1888.398926
3114.980305	1.112538	0.173741	492.854279
3114.981240	0.664556	0.173741	1114.213867
3114.982181	0.088693	0.173741	1197.673584
3114.983097	0.085719	0.173741	1276.192139
3114.983992	0.085781	0.173741	1352.966309
3114.984929	0.085814	0.173741	1433.374268
3114.985846	0.085822	0.173741	1512.072632
3114.986765	0.085840	0.173741	1590.959473
3114.987658	0.085759	0.173741	1667.542480
3114.988613	0.085822	0.173741	1749.502075
3114.989542	0.085763	0.173741	1829.175781
3114.990455	0.085847	0.173741	1907.554199
3116.040650	1.098160	0.159199	479.896088
3116.041598	0.665167	0.159199	1110.474609
3116.042538	0.088524	0.159199	1193.687378
3116.043453	0.085778	0.159199	1272.173828
3116.044352	0.085792	0.159199	1349.301025
3116.045286	0.085811	0.159199	1429.448120
3116.046228	0.085807	0.159199	1510.278198
3116.047127	0.085844	0.159199	1587.451538
3116.048035	0.085737	0.159199	1665.301025
3116.048967	0.085704	0.159199	1745.177490
3116.049900	0.085829	0.159199	1825.255859
3116.050793	0.085836	0.159199	1901.907593
3117.061613	1.148566	0.167695	543.271545
3117.062547	0.589596	0.167695	1093.954102
3117.063478	0.087924	0.167695	1175.810913
3117.064368	0.085876	0.167695	1252.240967
3117.065316	0.085796	0.167695	1333.575439
3117.066247	0.085818	0.167695	1413.471924
3117.067141	0.085807	0.167695	1490.183228
3117.068064	0.085759	0.167695	1569.338989
3117.068990	0.085756	0.167695	1648.748657
3117.069911	0.085800	0.167695	1727.770020
3117.070812	0.085840	0.167695	1805.111694
3117.071756	0.085847	0.167695	1886.151367
3118.096600	1.108286	0.172920	496.512207
3118.097493	0.685642	0.172920	1108.790527
3118.098447	0.089095	0.172920	1193.787598
3118.099369	0.085774	0.172920	1272.871216
3118.100263	0.085774	0.172920	1349.553101
3118.101181	0.085763	0.172920	1428.283447
3118.102117	0.085865	0.172920	1508.653564
3118.103042	0.085800	0.172920	1588.018188
3118.103932	0.085840	0.172920	1664.415649
3118.104856	0.085781	0.172920	1743.677490
3118.105791	0.085825	0.172920	1823.924072
3118.106715	0.085785	0.172920	1903.189331
3119.131619	1.115607	0.153805	515.410278
3119.132541	0.631703	0.153805	1097.840332
3119.133468	0.088524	0.153805	1179.902222
3119.134356	0.085752	0.153805	1256.049927
3119.135312	0.085939	0.153805	1338.207397
3119.136210	0.085891	0.153805	1415.337646
3119.137106	0.085800	0.153805	1492.214111
3119.137996	0.085807	0.153805	1568.582275
3119.138927	0.085913	0.153805	1648.567383
3119.139827	0.085880	0.153805	1725.859497
3119.140728	0.085778	0.153805	1803.145142
3119.141618	0.085836	0.153805	1879.539307
3120.170700	1.101965	0.179522	482.660797
3120.171633	0.676721	0.179522	1114.041626
3120.172543	0.089180	0.179522	1195.195190
3120.173451	0.085730	0.179522	1273.037964
3120.174353	0.085792	0.179522	1350.422607
3120.175276	0.085876	0.179522	1429.686523
3120.176185	0.085880	0.179522	1507.751587
3120.177086	0.085800	0.179522	1585.057007
3120.177976	0.085778	0.179522	1661.399048
3120.178916	0.085891	0.179522	1742.136719
3120.179820	0.085781	0.179522	1819.682983
3120.180714	0.085844	0.179522	1896.427124
3121.183434	1.101914	0.149781	479.332611
3121.184371	0.672012	0.149781	1109.007568
3121.185314	0.088605	0.149781	1192.561768
3121.186231	0.085737	0.149781	1271.182861
3121.187120	0.085763	0.149781	1347.426147
3121.188068	0.085814	0.149781	1428.778076
3121.188987	0.085774	0.149781	1507.604370
3121.189893	0.085770	0.149781	1585.312256
3121.190786	0.085833	0.149781	1661.960693
3121.191725	0.085752	0.149781	1742.481812
3121.192659	0.085748	0.149781	1822.570679
3121.193557	0.085789	0.149781	1899.608765
3122.252758	1.112831	0.173117	492.984070
3122.253670	0.675795	0.173117	1109.308838
3122.254557	0.090114	0.173117	1189.239502
3122.255505	0.085884	0.173117	1270.657349
3122.256414	0.085781	0.173117	1348.632568
3122.257314	0.085818	0.173117	1425.868652
3122.258240	0.085836	0.173117	1505.352905
3122.259146	0.085818	0.173117	1583.103882
3122.260049	0.085836	0.173117	1660.614014
3122.260938	0.085928	0.173117	1737.003784
3122.261866	0.085957	0.173117	1816.771851
3122.262769	0.085851	0.173117	1894.295166
3123.239642	1.122649	0.163808	507.437317
3123.240548	0.669551	0.163808	1114.050293
3123.241486	0.089755	0.163808	1198.240112
3123.242395	0.085898	0.163808	1276.321777
3123.243298	0.085807	0.163808	1353.805420
3123.244186	0.085851	0.163808	1430.041016
3123.245122	0.085807	0.163808	1510.356201
3123.246019	0.085844	0.163808	1587.357788
3123.246920	0.085836	0.163808	1664.696167
3123.247806	0.085803	0.163808	1740.717773
3123.248744	0.085939	0.163808	1821.328247
3123.249651	0.085873	0.163808	1899.214844
3124.323291	1.114391	0.162736	503.704651
3124.324189	0.679691	0.162736	1114.067261
3124.325129	0.090190	0.162736	1198.846313
3124.326043	0.085851	0.162736	1277.313965
3124.326937	0.085825	0.162736	1354.041748
3124.327823	0.085785	0.162736	1430.047119
3124.328768	0.085811	0.162736	1511.138062
3124.329668	0.085807	0.162736	1588.364258
3124.330576	0.085818	0.162736	1666.286865
3124.331467	0.085774	0.162736	1742.711426
3124.332420	0.085851	0.162736	1824.527222
3124.333317	0.085774	0.162736	1901.466431
3125.312011	1.169919	0.172750	582.619873
3125.312937	0.569125	0.172750	1109.629395
3125.313827	0.088217	0.172750	1188.142090
3125.314711	0.085756	0.172750	1263.950073
3125.315657	0.085818	0.172750	1345.133789
3125.316560	0.085719	0.172750	1422.538086
3125.317451	0.085822	0.172750	1499.005127
3125.318385	0.085895	0.172750	1579.230835
3125.319291	0.085781	0.172750	1656.948608
3125.320189	0.085829	0.172750	1734.022949
3125.321079	0.085803	0.172750	1810.387817
3125.322015	0.085785	0.172750	1890.682495
3126.378238	1.134375	0.159260	558.112488
3126.379173	0.562097	0.159260	1083.673340
3126.380073	0.088096	0.159260	1162.959473
3126.380961	0.085763	0.159260	1239.116943
3126.381912	0.085807	0.159260	1320.719238
3126.382829	0.085730	0.159260	1399.333618
3126.383728	0.085807	0.159260	1476.473999
3126.384613	0.085781	0.159260	1552.390381
3126.385549	0.085803	0.159260	1632.702148
3126.386449	0.085748	0.159260	1709.875610
3126.387340	0.085789	0.159260	1786.313232
3126.388278	0.085851	0.159260	1866.841309
3127.392467	1.115607	0.170358	499.791779
3127.393368	0.683339	0.170358	1115.479858
3127.394256	0.090370	0.170358	1195.728271
3127.395209	0.085862	0.170358	1277.554565
3127.396122	0.085734	0.170358	1355.829346
3127.397020	0.085785	0.170358	1432.864258
3127.397911	0.085818	0.170358	1509.328003
3127.398858	0.085767	0.170358	1590.548950
3127.399762	0.085752	0.170358	1668.068726
3127.400655	0.085873	0.170358	1744.753174
3127.401586	0.085844	0.170358	1824.673462
3127.402496	0.085800	0.170358	1902.751099
3128.432611	1.126168	0.168722	515.785034
3128.433510	0.663776	0.168722	1112.519287
3128.434449	0.089323	0.168722	1196.393066
3128.435358	0.085811	0.168722	1274.394897
3128.436265	0.085829	0.168722	1352.241699
3128.437158	0.085807	0.168722	1428.867187
3128.438099	0.085880	0.168722	1509.680420
3128.439007	0.085800	0.168722	1587.586426
3128.439906	0.085811	0.168722	1664.730103
3128.440827	0.085836	0.168722	1743.785278
3128.441735	0.085924	0.168722	1821.804321
3128.442641	0.085767	0.168722	1899.508911
3129.465810	1.116269	0.160968	498.972443
3129.466714	0.679438	0.160968	1113.184814
3129.467651	0.089619	0.160968	1197.157959
3129.468563	0.085873	0.160968	1275.473999
3129.469466	0.085836	0.160968	1352.984131
3129.470356	0.085737	0.160968	1429.290283
3129.471299	0.085876	0.160968	1510.271729
3129.472200	0.085873	0.160968	1587.643066
3129.473091	0.085796	0.160968	1664.087158
3129.474008	0.085869	0.160968	1742.829102
3129.474935	0.085818	0.160968	1822.382324
3129.475845	0.085803	0.160968	1900.463257
3130.497547	1.153484	0.181343	575.588501
3130.498463	0.575592	0.181343	1102.830811
3130.499365	0.088396	0.181343	1182.563965
3130.500255	0.085778	0.181343	1258.906006
3130.501184	0.085862	0.181343	1338.671631
3130.502097	0.085854	0.181343	1417.056763
3130.503003	0.085869	0.181343	1494.854248
3130.503918	0.085822	0.181343	1573.380981
3130.504825	0.085854	0.181343	1651.250977
3130.505739	0.085818	0.181343	1729.688477
3130.506631	0.085803	0.181343	1806.224976
3130.507566	0.085814	0.181343	1886.461304
3131.527643	1.120459	0.153676	497.483765
3131.528570	0.641451	0.153676	1092.109253
3131.529470	0.089238	0.153676	1172.423706
3131.530357	0.085822	0.153676	1248.547363
3131.531306	0.085920	0.153676	1330.085815
3131.532219	0.085726	0.153676	1408.354004
3131.533110	0.085880	0.153676	1484.873169
3131.534046	0.085884	0.153676	1565.260376
3131.534942	0.085920	0.153676	1642.245117
3131.535842	0.085800	0.153676	1719.464722
3131.536733	0.085811	0.153676	1795.921875
3131.537667	0.085847	0.153676	1876.103149
3132.571133	1.165089	0.183083	567.398376
3132.572066	0.573589	0.183083	1102.556885
3132.572963	0.088418	0.183083	1181.867798
3132.573847	0.085770	0.183083	1257.688721
3132.574798	0.085884	0.183083	1339.364258
3132.575695	0.085814	0.183083	1416.339600
3132.576581	0.085814	0.183083	1492.370972
3132.577501	0.085858	0.183083	1571.360474
3132.578406	0.085880	0.183083	1649.082031
3132.579314	0.085873	0.183083	1727.054565
3132.580205	0.085792	0.183083	1803.495483
3132.581140	0.085873	0.183083	1883.786621
3133.586380	1.110985	0.151622	491.055389
3133.587277	0.672074	0.151622	1093.905762
3133.588252	0.088198	0.151622	1179.899048
3133.589158	0.085785	0.151622	1257.620117
3133.590043	0.085701	0.151622	1333.465210
3133.590980	0.085884	0.151622	1413.938354
3133.591890	0.085770	0.151622	1491.989258
3133.592783	0.085789	0.151622	1568.598389
3133.593677	0.085796	0.151622	1645.299927
3133.594614	0.085818	0.151622	1725.711304
3133.595512	0.085704	0.151622	1802.673828
3133.596435	0.085763	0.151622	1881.833008
3134.645724	1.116273	0.182378	502.322937
3134.646627	0.674257	0.182378	1111.176636
3134.647511	0.090293	0.182378	1190.995605
3134.648459	0.085800	0.182378	1272.333618
3134.649367	0.085811	0.182378	1350.249634
3134.650259	0.085865	0.182378	1426.841675
3134.651191	0.085902	0.182378	1506.902466
3134.652101	0.085792	0.182378	1584.973389
3134.653018	0.085829	0.182378	1663.678467
3134.653912	0.085865	0.182378	1740.442139
3134.654855	0.085865	0.182378	1821.413330
3134.655763	0.085774	0.182378	1899.296021
3135.645397	1.104152	0.156069	489.139160
3135.646307	0.677351	0.156069	1105.528564
3135.647193	0.090278	0.156069	1185.515137
3135.648161	0.085781	0.156069	1268.551392
3135.649059	0.085737	0.156069	1345.543457
3135.649979	0.085829	0.156069	1424.505981
3135.650869	0.085719	0.156069	1500.795898
3135.651813	0.085858	0.156069	1581.845947
3135.652714	0.085792	0.156069	1659.144775
3135.653604	0.085822	0.156069	1735.525879
3135.654525	0.085840	0.156069	1814.584351
3135.655437	0.085836	0.156069	1892.866943
3136.717772	1.110934	0.179832	487.699921
3136.718740	0.610609	0.179832	1078.769531
3136.719672	0.088235	0.179832	1161.004395
3136.720561	0.085829	0.179832	1237.306274
3136.721494	0.085737	0.179832	1317.299194
3136.722402	0.085737	0.179832	1395.148682
3136.723316	0.085818	0.179832	1473.586182
3136.724214	0.085851	0.179832	1550.680176
3136.725163	0.085763	0.179832	1632.069214
3136.726089	0.085719	0.179832	1711.444946
3136.727008	0.085800	0.179832	1790.294678
3136.727898	0.085803	0.179832	1866.659546
3137.707718	1.119511	0.159534	490.345612
3137.708713	0.551660	0.159534	1039.247437
3137.709633	0.087686	0.159534	1119.918091
3137.710531	0.085763	0.159534	1196.933228
3137.711463	0.085811	0.159534	1276.908691
3137.712379	0.085796	0.159534	1355.497681
3137.713301	0.085789	0.159534	1434.594727
3137.714190	0.085807	0.159534	1510.877075
3137.715141	0.085745	0.159534	1592.420166
3137.716061	0.085807	0.159534	1671.362549
3137.716950	0.085829	0.159534	1747.664429
3137.717866	0.085774	0.159534	1826.233398
3138.787788	1.105576	0.178306	486.453522
3138.788771	0.604940	0.178306	1081.109741
3138.789695	0.087997	0.178306	1162.418823
3138.790584	0.085825	0.178306	1238.717407
3138.791505	0.085818	0.178306	1317.755615
3138.792437	0.085807	0.178306	1397.727661
3138.793366	0.085829	0.178306	1477.462646
3138.794270	0.085770	0.178306	1554.999023
3138.795193	0.085785	0.178306	1634.178467
3138.796130	0.085811	0.178306	1714.583008
3138.797061	0.085701	0.178306	1794.370361
3138.797957	0.085865	0.178306	1871.305786
3139.772656	1.133514	0.160802	529.351196
3139.773568	0.633281	0.160802	1106.903687
3139.774455	0.089502	0.160802	1186.291870
3139.775409	0.085726	0.160802	1268.074829
3139.776344	0.085840	0.160802	1348.335083
3139.777243	0.085814	0.160802	1425.482056
3139.778164	0.085814	0.160802	1504.516968
3139.779101	0.085752	0.160802	1584.866577
3139.780021	0.085847	0.160802	1663.845947
3139.780908	0.085847	0.160802	1739.992432
3139.781835	0.085847	0.160802	1819.572754
3139.782776	0.085851	0.160802	1900.358398
3140.854731	1.107935	0.177492	487.491211
3140.855695	0.612795	0.177492	1078.226074
3140.856608	0.088264	0.177492	1158.811279
3140.857505	0.085781	0.177492	1235.757080
3140.858419	0.085803	0.177492	1314.181274
3140.859354	0.085818	0.177492	1394.421021
3140.860263	0.085822	0.177492	1472.432739
3140.861152	0.085862	0.177492	1548.763916
3140.862103	0.085851	0.177492	1630.408081
3140.863046	0.085825	0.177492	1711.341187
3140.863943	0.085873	0.177492	1788.369141
3140.864870	0.085844	0.177492	1867.946045
3141.839833	1.116822	0.160484	502.570129
3141.840729	0.667332	0.160484	1100.499146
3141.841681	0.088572	0.160484	1184.819458
3141.842595	0.085844	0.160484	1263.280396
3141.843485	0.085796	0.160484	1339.638794
3141.844418	0.085862	0.160484	1419.747925
3141.845329	0.085792	0.160484	1497.904663
3141.846261	0.085833	0.160484	1577.900513
3141.847151	0.085862	0.160484	1654.317505
3141.848069	0.085880	0.160484	1733.155518
3141.849010	0.085862	0.160484	1813.951538
3141.849924	0.085792	0.160484	1892.365601
3142.920143	1.102577	0.179852	481.826080
3142.921042	0.688019	0.179852	1100.354980
3142.922005	0.088945	0.179852	1186.009277
3142.922929	0.085825	0.179852	1265.311768
3142.923817	0.085847	0.179852	1341.544067
3142.924742	0.085851	0.179852	1420.956055
3142.925679	0.085803	0.179852	1501.353638
3142.926606	0.085811	0.179852	1580.900024
3142.927510	0.085865	0.179852	1658.522461
3142.928426	0.085774	0.179852	1737.091431
3142.929364	0.085898	0.179852	1817.664185
3142.930280	0.085884	0.179852	1896.333740
3143.907025	1.111531	0.159864	495.742676
3143.908009	0.598356	0.159864	1084.524658
3143.908925	0.088011	0.159864	1165.143188
3143.909836	0.085814	0.159864	1243.319946
3143.910735	0.085873	0.159864	1320.519653
3143.911662	0.085748	0.159864	1400.008301
3143.912596	0.085884	0.159864	1480.223755
3143.913518	0.085822	0.159864	1559.351196
3143.914406	0.085814	0.159864	1635.554199
3143.915349	0.085887	0.159864	1716.546021
3143.916279	0.085891	0.159864	1796.424805
3143.917178	0.085906	0.159864	1873.654053
3144.985586	1.117778	0.181846	523.120300
3144.986494	0.632703	0.181846	1097.614258
3144.987386	0.089326	0.181846	1177.293213
3144.988328	0.085767	0.181846	1258.085327
3144.989262	0.085756	0.181846	1338.181030
3144.990173	0.085829	0.181846	1416.371094
3144.991078	0.085854	0.181846	1494.069458
3144.992008	0.085756	0.181846	1573.822144
3144.992946	0.085825	0.181846	1654.326172
3144.993836	0.085807	0.181846	1730.694336
3144.994762	0.085975	0.181846	1810.307495
3144.995691	0.085792	0.181846	1890.008545
3145.975779	1.119210	0.155175	518.194275
3145.976688	0.642363	0.155175	1102.102539
3145.977616	0.089249	0.155175	1184.925903
3145.978559	0.085715	0.155175	1265.755493
3145.979479	0.085836	0.155175	1344.724731
3145.980379	0.085807	0.155175	1421.950928
3145.981317	0.085814	0.155175	1502.444702
3145.982248	0.085858	0.155175	1582.378662
3145.983158	0.085844	0.155175	1660.496216
3145.984066	0.085763	0.155175	1738.368896
3145.985001	0.085715	0.155175	1818.512695
3145.985933	0.085785	0.155175	1898.464233
3147.048696	1.122191	0.187236	531.918640
3147.049625	0.603036	0.187236	1092.139038
3147.050525	0.088506	0.187236	1171.794312
3147.051445	0.085847	0.187236	1250.773682
3147.052375	0.085811	0.187236	1330.577515
3147.053297	0.085807	0.187236	1409.691406
3147.054191	0.085792	0.187236	1486.389648
3147.055138	0.085876	0.187236	1567.714600
3147.056071	0.085851	0.187236	1647.813477
3147.056972	0.085862	0.187236	1725.174927
3147.057872	0.085869	0.187236	1802.457153
3147.058806	0.085898	0.187236	1882.686279
3148.049609	1.105056	0.151884	487.329773
3148.050504	0.685258	0.151884	1100.635254
3148.051477	0.088601	0.151884	1186.844116
3148.052409	0.085789	0.151884	1266.799072
3148.053321	0.085814	0.151884	1345.061646
3148.054213	0.085781	0.151884	1421.578491
3148.055155	0.085785	0.151884	1502.387939
3148.056087	0.085814	0.151884	1582.366821
3148.056980	0.085844	0.151884	1659.025024
3148.057897	0.085851	0.151884	1737.750244
3148.058836	0.085862	0.151884	1818.374512
3148.059758	0.085785	0.151884	1897.468262
3149.108165	1.110601	0.189077	485.332458
3149.109147	0.571359	0.189077	1046.406616
3149.110045	0.088381	0.189077	1125.773071
3149.110947	0.085818	0.189077	1203.180786
3149.111831	0.085884	0.189077	1279.102051
3149.112779	0.085931	0.189077	1360.565063
3149.113682	0.085920	0.189077	1438.151245
3149.114573	0.085884	0.189077	1514.673706
3149.115494	0.085833	0.189077	1593.725464
3149.116402	0.085814	0.189077	1671.644775
3149.117302	0.085792	0.189077	1748.857788
3149.118187	0.085829	0.189077	1824.816284
3150.126080	1.149001	0.150619	554.967712
3150.126984	0.620398	0.150619	1115.807373
3150.127870	0.089187	0.150619	1194.827026
3150.128815	0.085781	0.150619	1275.890259
3150.129746	0.085734	0.150619	1355.708252
3150.130645	0.085862	0.150619	1432.898071
3150.131564	0.085759	0.150619	1511.710815
3150.132500	0.085734	0.150619	1591.957520
3150.133413	0.085807	0.150619	1670.299194
3150.134303	0.085825	0.150619	1746.683594
3150.135244	0.085796	0.150619	1827.417480
3150.136175	0.085763	0.150619	1907.262817
3151.165941	1.140850	0.188417	536.199280
3151.166861	0.618468	0.188417	1105.189941
3151.167746	0.089260	0.188417	1184.185303
3151.168697	0.085800	0.188417	1265.780640
3151.169635	0.085880	0.188417	1346.336182
3151.170527	0.085822	0.188417	1422.889038
3151.171447	0.085789	0.188417	1501.814575
3151.172378	0.085811	0.188417	1581.704224
3151.173296	0.085898	0.188417	1660.558960
3151.174193	0.085814	0.188417	1737.534302
3151.175141	0.085822	0.188417	1818.893066
3151.176078	0.085763	0.188417	1899.252930
3152.199384	1.118320	0.157870	493.179260
3152.200312	0.652064	0.157870	1098.294922
3152.201198	0.089718	0.157870	1177.785034
3152.202141	0.085854	0.157870	1258.745850
3152.203050	0.085745	0.157870	1336.687744
3152.203944	0.085741	0.157870	1413.340210
3152.204833	0.085785	0.157870	1489.603027
3152.205785	0.085876	0.157870	1571.357422
3152.206689	0.085781	0.157870	1648.903687
3152.207590	0.085756	0.157870	1726.169434
3152.208524	0.085785	0.157870	1806.292480
3152.209426	0.085796	0.157870	1883.680420
3153.228556	1.150997	0.183522	580.102600
3153.229479	0.559468	0.183522	1096.491455
3153.230374	0.088213	0.183522	1175.442017
3153.231264	0.085752	0.183522	1251.761230
3153.232194	0.085964	0.183522	1331.708130
3153.233105	0.085844	0.183522	1409.911621
3153.234008	0.085858	0.183522	1487.441528
3153.234918	0.085829	0.183522	1565.545776
3153.235834	0.085858	0.183522	1644.191895
3153.236741	0.085818	0.183522	1722.028687
3153.237630	0.085880	0.183522	1798.376099
3153.238566	0.085865	0.183522	1878.746216
3154.264008	1.094835	0.173717	475.158508
3154.264946	0.679277	0.173717	1112.320679
3154.265855	0.089026	0.173717	1193.245239
3154.266768	0.085800	0.173717	1271.580200
3154.267664	0.085789	0.173717	1348.446777
3154.268602	0.085884	0.173717	1429.005737
3154.269510	0.085796	0.173717	1506.908447
3154.270416	0.085763	0.173717	1584.609619
3154.271305	0.085818	0.173717	1660.901733
3154.272245	0.085847	0.173717	1741.598022
3154.273150	0.085840	0.173717	1819.283081
3154.274042	0.085767	0.173717	1895.786865
3155.300818	1.114186	0.172464	498.041046
3155.301712	0.673850	0.172464	1100.463013
3155.302680	0.088652	0.172464	1186.278442
3155.303574	0.085770	0.172464	1262.957031
3155.304464	0.085730	0.172464	1339.256714
3155.305399	0.085854	0.172464	1419.530640
3155.306316	0.085818	0.172464	1498.225586
3155.307220	0.085854	0.172464	1575.838013
3155.308116	0.085745	0.172464	1652.665161
3155.309081	0.085792	0.172464	1735.454712
3155.309990	0.085818	0.172464	1813.463135
3155.310890	0.085833	0.172464	1890.712402
3156.320973	1.105397	0.182427	485.269165
3156.321929	0.650636	0.182427	1107.277100
3156.322846	0.088502	0.182427	1188.433594
3156.323748	0.085880	0.182427	1265.897461
3156.324639	0.085833	0.182427	1342.374268
3156.325599	0.085811	0.182427	1424.752441
3156.326507	0.085778	0.182427	1502.638428
3156.327412	0.085825	0.182427	1580.310181
3156.328299	0.085807	0.182427	1656.420898
3156.329233	0.085792	0.182427	1736.550903
3156.330130	0.085796	0.182427	1813.509766
3156.331019	0.085774	0.182427	1889.762817
3157.380307	1.109520	0.164758	493.736542
3157.381202	0.697679	0.164758	1118.159668
3157.382183	0.088304	0.164758	1204.786377
3157.383094	0.085796	0.164758	1282.946411
3157.383992	0.085829	0.164758	1360.020752
3157.384882	0.085811	0.164758	1436.392090
3157.385818	0.085781	0.164758	1516.683350
3157.386710	0.085792	0.164758	1593.209961
3157.387601	0.085825	0.164758	1669.680176
3157.388541	0.085880	0.164758	1750.407471
3157.389457	0.085858	0.164758	1829.053589
3157.390360	0.085800	0.164758	1906.530640
3158.375384	1.117808	0.182060	492.953156
3158.376322	0.633600	0.182060	1087.269897
3158.377211	0.089374	0.182060	1166.723145
3158.378159	0.085851	0.182060	1248.109741
3158.379063	0.085862	0.182060	1325.728760
3158.379960	0.085822	0.182060	1402.710693
3158.380851	0.085814	0.182060	1479.171143
3158.381785	0.085865	0.182060	1559.369507
3158.382693	0.085781	0.182060	1637.258911
3158.383589	0.085796	0.182060	1714.132080
3158.384506	0.085763	0.182060	1792.776733
3158.385413	0.085854	0.182060	1870.646729
3159.454669	1.120100	0.164194	493.964172
3159.455643	0.571344	0.164194	1050.453247
3159.456553	0.088180	0.164194	1130.697021
3159.457448	0.085785	0.164194	1207.474487
3159.458387	0.085800	0.164194	1288.040283
3159.459310	0.085811	0.164194	1367.243408
3159.460214	0.085789	0.164194	1444.796265
3159.461106	0.085847	0.164194	1521.371948
3159.462054	0.085811	0.164194	1602.720337
3159.462954	0.085767	0.164194	1679.910278
3159.463843	0.085789	0.164194	1756.176270
3159.464748	0.085880	0.164194	1833.897827
3160.436931	1.096264	0.173085	476.874634
3160.437896	0.626591	0.173085	1081.534424
3160.438802	0.088447	0.173085	1161.667603
3160.439699	0.085822	0.173085	1238.649536
3160.440589	0.085854	0.173085	1315.060059
3160.441546	0.085931	0.173085	1397.296387
3160.442446	0.085822	0.173085	1474.535767
3160.443344	0.085869	0.173085	1551.646240
3160.444261	0.085829	0.173085	1630.351318
3160.445173	0.085979	0.173085	1708.764160
3160.446077	0.085854	0.173085	1786.376587
3160.446968	0.085814	0.173085	1862.837036
3161.517007	1.105452	0.178390	485.293304
3161.517952	0.673663	0.178390	1121.905151
3161.518865	0.088901	0.178390	1203.072144
3161.519764	0.085811	0.178390	1280.215820
3161.520650	0.085833	0.178390	1356.263428
3161.521589	0.085873	0.178390	1436.897949
3161.522508	0.085796	0.178390	1515.744385
3161.523407	0.085785	0.178390	1592.864990
3161.524296	0.085778	0.178390	1669.121216
3161.525247	0.085898	0.178390	1750.810669
3161.526151	0.085774	0.178390	1828.350342
3161.527044	0.085814	0.178390	1904.982422
3162.512842	1.101881	0.162378	484.827637
3162.513735	0.699617	0.162378	1109.585327
3162.514703	0.088557	0.162378	1195.308594
3162.515610	0.085840	0.162378	1273.165283
3162.516509	0.085781	0.162378	1350.282593
3162.517437	0.085913	0.162378	1430.009888
3162.518347	0.085931	0.162378	1508.207397
3162.519259	0.085818	0.162378	1586.473267
3162.520153	0.085865	0.162378	1663.237061
3162.521088	0.085851	0.162378	1743.507568
3162.521992	0.085763	0.162378	1821.037231
3162.522893	0.085803	0.162378	1898.345947
3163.570132	1.110853	0.190854	492.108032
3163.571085	0.604017	0.190854	1067.736572
3163.571987	0.088755	0.190854	1147.793457
3163.572892	0.085803	0.190854	1225.445312
3163.573780	0.085822	0.190854	1301.654785
3163.574733	0.085906	0.190854	1383.522949
3163.575636	0.085858	0.190854	1461.052856
3163.576533	0.085836	0.190854	1538.047852
3163.577460	0.085807	0.190854	1617.590820
3163.578364	0.085811	0.190854	1695.163574
3163.579262	0.085891	0.190854	1772.293823
3163.580155	0.085807	0.190854	1848.919434
3164.592350	1.124242	0.155525	509.281616
3164.593247	0.677241	0.155525	1116.766968
3164.594201	0.089279	0.155525	1201.938721
3164.595108	0.085829	0.155525	1279.785522
3164.596007	0.085803	0.155525	1356.922607
3164.596893	0.085781	0.155525	1432.924805
3164.597836	0.085829	0.155525	1513.861450
3164.598745	0.085789	0.155525	1591.843262
3164.599643	0.085822	0.155525	1668.911011
3164.600568	0.085876	0.155525	1748.346680
3164.601475	0.085950	0.155525	1826.303101
3164.602382	0.085726	0.155525	1904.056885
3165.627870	1.122396	0.185403	503.955902
3165.628801	0.638624	0.185403	1098.515137
3165.629692	0.089293	0.185403	1178.075439
3165.630623	0.085847	0.185403	1257.999146
3165.631518	0.085825	0.185403	1334.812744
3165.632415	0.085774	0.185403	1411.751953
3165.633302	0.085822	0.185403	1487.875610
3165.634233	0.085800	0.185403	1567.755005
3165.635132	0.085884	0.185403	1644.964478
3165.636036	0.085792	0.185403	1722.520630
3165.636925	0.085818	0.185403	1798.812744
3165.637869	0.085891	0.185403	1879.893921
3166.664415	1.121441	0.160710	501.283905
3166.665352	0.642554	0.160710	1103.356812
3166.666250	0.089341	0.160710	1183.584839
3166.667198	0.085854	0.160710	1264.974854
3166.668094	0.085854	0.160710	1341.900513
3166.668999	0.085803	0.160710	1419.552490
3166.669890	0.085825	0.160710	1496.022705
3166.670833	0.085939	0.160710	1577.062866
3166.671731	0.085836	0.160710	1654.143799
3166.672646	0.085796	0.160710	1732.647095
3166.673536	0.085862	0.160710	1809.064087
3166.674480	0.085833	0.160710	1890.089966
3167.693513	1.101500	0.174462	483.558624
3167.694483	0.590226	0.174462	1056.077637
3167.695392	0.088466	0.174462	1136.492798
3167.696295	0.085789	0.174462	1213.959839
3167.697182	0.085935	0.174462	1290.184204
3167.698137	0.085898	0.174462	1372.217163
3167.699043	0.085770	0.174462	1449.925049
3167.699932	0.085796	0.174462	1526.197632
3167.700885	0.085917	0.174462	1608.076294
3167.701794	0.085822	0.174462	1686.088013
3167.702695	0.085854	0.174462	1763.442871
3167.703580	0.085811	0.174462	1839.385254
3168.725478	1.119664	0.173907	508.327606
3168.726386	0.662860	0.173907	1110.204590
3168.727279	0.089788	0.173907	1190.384888
3168.728231	0.085822	0.173907	1272.087036
3168.729144	0.085822	0.173907	1350.442139
3168.730052	0.085785	0.173907	1428.334839
3168.730947	0.085814	0.173907	1505.138550
3168.731905	0.085763	0.173907	1587.299438
3168.732819	0.085759	0.173907	1665.683472
3168.733745	0.085814	0.173907	1745.147461
3168.734629	0.085748	0.173907	1820.948975
3168.735575	0.085748	0.173907	1902.066895
3169.767628	1.104071	0.167002	484.687164
3169.768601	0.585934	0.167002	1054.800781
3169.769530	0.087850	0.167002	1136.413818
3169.770426	0.085789	0.167002	1213.280396
3169.771350	0.085767	0.167002	1292.528687
3169.772283	0.085756	0.167002	1372.538696
3169.773212	0.085730	0.167002	1452.181885
3169.774104	0.085876	0.167002	1528.783691
3169.775046	0.085803	0.167002	1609.610352
3169.775981	0.085789	0.167002	1689.822632
3169.776898	0.085818	0.167002	1768.517578
3169.777784	0.085898	0.167002	1844.623535
3170.783947	1.116409	0.182825	490.103424
3170.784925	0.577218	0.182825	1054.622681
3170.785828	0.088239	0.182825	1134.302124
3170.786750	0.085789	0.182825	1213.399170
3170.787646	0.085873	0.182825	1290.341187
3170.788599	0.085785	0.182825	1372.094238
3170.789518	0.085785	0.182825	1450.930542
3170.790405	0.085836	0.182825	1527.067261
3170.791347	0.085734	0.182825	1607.828369
3170.792247	0.085774	0.182825	1685.024902
3170.793176	0.085789	0.182825	1764.722534
3170.794063	0.085873	0.182825	1840.891724
3171.842018	1.122898	0.163046	507.549896
3171.842914	0.680977	0.163046	1117.704956
3171.843804	0.090275	0.163046	1198.049438
3171.844763	0.085759	0.163046	1280.292603
3171.845657	0.085730	0.163046	1356.935181
3171.846570	0.085814	0.163046	1435.283569
3171.847467	0.085880	0.163046	1512.317993
3171.848407	0.085796	0.163046	1592.966187
3171.849328	0.085822	0.163046	1672.007812
3171.850222	0.085811	0.163046	1748.722412
3171.851141	0.085719	0.163046	1827.498169
3171.852073	0.085796	0.163046	1907.459961
3172.844029	1.138608	0.183784	557.918091
3172.844948	0.589362	0.183784	1099.541382
3172.845868	0.088048	0.183784	1180.545654
3172.846771	0.085763	0.183784	1257.989624
3172.847699	0.085781	0.183784	1337.594604
3172.848607	0.085811	0.183784	1415.510620
3172.849528	0.085800	0.183784	1494.531982
3172.850421	0.085844	0.183784	1571.190186
3172.851388	0.085818	0.183784	1654.176025
3172.852284	0.085781	0.183784	1731.036011
3172.853175	0.085811	0.183784	1807.493164
3172.854108	0.085745	0.183784	1887.492920
3173.915350	1.104763	0.163586	490.514832
3173.916250	0.687887	0.163586	1109.613037
3173.917182	0.090505	0.163586	1193.963989
3173.918098	0.085785	0.163586	1272.542969
3173.918998	0.085774	0.163586	1349.739502
3173.919923	0.085822	0.163586	1429.124390
3173.920816	0.085858	0.163586	1505.795654
3173.921756	0.085880	0.163586	1586.522949
3173.922684	0.085796	0.163586	1666.141602
3173.923583	0.085770	0.163586	1743.249023
3173.924531	0.085814	0.163586	1824.600830
3173.925429	0.085785	0.163586	1901.635742
3174.906076	1.115808	0.179079	499.881989
3174.906974	0.673114	0.179079	1104.338379
3174.907912	0.088956	0.179079	1187.779419
3174.908817	0.085862	0.179079	1265.484375
3174.909732	0.085833	0.179079	1344.021118
3174.910619	0.085829	0.179079	1420.151367
3174.911559	0.085825	0.179079	1500.827026
3174.912483	0.085847	0.179079	1580.149780
3174.913369	0.085946	0.179079	1656.297974
3174.914303	0.085891	0.179079	1736.520264
3174.915215	0.085884	0.179079	1814.846313
3174.916142	0.085854	0.179079	1894.433472
3175.985133	1.121345	0.166539	513.576111
3175.986042	0.656235	0.166539	1110.093994
3175.986930	0.089718	0.166539	1189.763550
3175.987909	0.085796	0.166539	1273.757690
3175.988813	0.085851	0.166539	1351.366821
3175.989726	0.085865	0.166539	1429.761963
3175.990624	0.085800	0.166539	1506.809937
3175.991567	0.085781	0.166539	1587.701660
3175.992485	0.085789	0.166539	1666.455566
3175.993377	0.085844	0.166539	1743.027954
3175.994308	0.085844	0.166539	1822.948242
3175.995228	0.085836	0.166539	1901.917480
3176.971030	1.178335	0.176074	599.772461
3176.971934	0.572051	0.176074	1116.906250
3176.972851	0.087971	0.176074	1197.575806
3176.973753	0.085818	0.176074	1274.983521
3176.974711	0.085829	0.176074	1357.207520
3176.975627	0.085822	0.176074	1435.820068
3176.976517	0.085854	0.176074	1512.230591
3176.977472	0.085924	0.176074	1594.288086
3176.978371	0.085803	0.176074	1671.425171
3176.979291	0.085807	0.176074	1750.367554
3176.980179	0.085792	0.176074	1826.551025
3176.981143	0.085785	0.176074	1909.247681
3178.052583	1.145933	0.169226	535.150513
3178.053495	0.631761	0.169226	1111.317017
3178.054423	0.088521	0.169226	1193.464111
3178.055362	0.085748	0.169226	1273.981812
3178.056282	0.085840	0.169226	1352.954468
3178.057171	0.085789	0.169226	1429.220459
3178.058119	0.085737	0.169226	1510.499390
3178.059044	0.085763	0.169226	1589.830078
3178.059937	0.085803	0.169226	1666.452393
3178.060861	0.085811	0.169226	1745.741333
3178.061791	0.085785	0.169226	1825.521240
3178.062709	0.085774	0.169226	1904.261719
3179.036617	1.101108	0.175115	481.184326
3179.037616	0.547321	0.175115	1027.957520
3179.038521	0.087803	0.175115	1107.418945
3179.039442	0.085811	0.175115	1186.450439
3179.040332	0.085869	0.175115	1262.874023
3179.041283	0.085763	0.175115	1344.434570
3179.042200	0.085814	0.175115	1423.126221
3179.043087	0.085814	0.175115	1499.243408
3179.044023	0.085778	0.175115	1579.531250
3179.044927	0.085789	0.175115	1657.084106
3179.045841	0.085774	0.175115	1735.481445
3179.046741	0.085818	0.175115	1812.717529
3180.119255	1.121843	0.168243	501.463959
3180.120150	0.670441	0.168243	1101.508423
3180.121123	0.088451	0.168243	1187.571167
3180.122041	0.085778	0.168243	1266.314941
3180.122933	0.085862	0.168243	1342.903687
3180.123868	0.085785	0.168243	1423.112549
3180.124784	0.085774	0.168243	1501.681519
3180.125704	0.085873	0.168243	1580.684448
3180.126597	0.085836	0.168243	1657.336182
3180.127543	0.085876	0.168243	1738.575317
3180.128462	0.085946	0.168243	1817.559692
3180.129383	0.085825	0.168243	1896.604736
3181.103598	1.148130	0.176686	535.028564
3181.104513	0.614916	0.176686	1097.676514
3181.105450	0.088246	0.176686	1180.362915
3181.106352	0.085957	0.176686	1257.896118
3181.107308	0.085752	0.176686	1339.875000
3181.108200	0.085792	0.176686	1416.401611
3181.109089	0.085862	0.176686	1492.732788
3181.110018	0.085836	0.176686	1572.474609
3181.110919	0.085851	0.176686	1649.826172
3181.111831	0.085858	0.176686	1728.128784
3181.112727	0.085833	0.176686	1805.034668
3181.113679	0.085865	0.176686	1886.778564
3182.186190	1.121601	0.168984	496.869446
3182.187179	0.559786	0.168984	1050.498169
3182.188074	0.088147	0.168984	1129.389648
3182.188999	0.085844	0.168984	1208.794922
3182.189886	0.085741	0.168984	1284.847168
3182.190821	0.085785	0.168984	1365.056030
3182.191737	0.085785	0.168984	1443.635010
3182.192632	0.085818	0.168984	1520.442017
3182.193581	0.085803	0.168984	1601.869263
3182.194496	0.085840	0.168984	1680.412720
3182.195412	0.085800	0.168984	1759.005127
3182.196298	0.085767	0.168984	1834.994385
3183.170027	1.142303	0.177089	525.459595
3183.170939	0.633713	0.177089	1103.406250
3183.171863	0.088531	0.177089	1185.209351
3183.172756	0.085726	0.177089	1261.762939
3183.173726	0.085774	0.177089	1344.963623
3183.174629	0.085807	0.177089	1422.447266
3183.175520	0.085781	0.177089	1498.878418
3183.176450	0.085825	0.177089	1578.695801
3183.177364	0.085715	0.177089	1657.039551
3183.178277	0.085778	0.177089	1735.354492
3183.179165	0.085800	0.177089	1811.544556
3183.180092	0.085807	0.177089	1891.087524
3184.252361	1.099259	0.168364	481.475464
3184.253343	0.562478	0.168364	1033.828857
3184.254252	0.088099	0.168364	1113.911133
3184.255143	0.085719	0.168364	1190.286743
3184.256060	0.085781	0.168364	1268.948120
3184.256988	0.085785	0.168364	1348.556519
3184.257882	0.085781	0.168364	1425.244995
3184.258790	0.085767	0.168364	1503.121094
3184.259686	0.085759	0.168364	1579.961426
3184.260647	0.085719	0.168364	1662.337402
3184.261566	0.085741	0.168364	1741.133301
3184.262460	0.085862	0.168364	1817.893799
3185.237961	1.097769	0.183015	480.822632
3185.238857	0.705465	0.183015	1112.919312
3185.239799	0.089114	0.183015	1196.864502
3185.240722	0.085785	0.183015	1276.043945
3185.241640	0.085785	0.183015	1354.794434
3185.242529	0.085847	0.183015	1431.112549
3185.243485	0.085814	0.183015	1513.150879
3185.244383	0.085741	0.183015	1590.146240
3185.245268	0.085829	0.183015	1666.104736
3185.246219	0.085836	0.183015	1747.734985
3185.247109	0.085833	0.183015	1824.125977
3185.248025	0.085873	0.183015	1902.785522
3186.316771	1.127164	0.167856	509.478241
3186.317684	0.651174	0.167856	1104.000366
3186.318576	0.089634	0.167856	1183.953735
3186.319511	0.085811	0.167856	1264.186646
3186.320431	0.085803	0.167856	1343.125610
3186.321352	0.085876	0.167856	1422.217773
3186.322245	0.085796	0.167856	1498.833496
3186.323190	0.085836	0.167856	1579.948730
3186.324089	0.085818	0.167856	1657.098999
3186.324980	0.085829	0.167856	1733.572510
3186.325919	0.085818	0.167856	1814.155518
3186.326828	0.085847	0.167856	1892.190552
3187.307719	1.094063	0.182165	473.729095
3187.308643	0.693560	0.182165	1114.578125
3187.309566	0.089041	0.182165	1196.762573
3187.310473	0.085774	0.182165	1274.559570
3187.311362	0.085781	0.182165	1350.819092
3187.312302	0.085924	0.182165	1431.587769
3187.313222	0.085767	0.182165	1510.493042
3187.314118	0.085781	0.182165	1587.353027
3187.315010	0.085792	0.182165	1663.879639
3187.315940	0.085854	0.182165	1743.724365
3187.316845	0.085781	0.182165	1821.356445
3187.317737	0.085759	0.182165	1897.853760
3188.378057	1.098801	0.166426	479.077362
3188.379001	0.673392	0.166426	1114.759644
3188.379933	0.088638	0.166426	1197.369995
3188.380831	0.085803	0.166426	1274.421265
3188.381720	0.085781	0.166426	1350.680786
3188.382657	0.085822	0.166426	1431.095581
3188.383567	0.085741	0.166426	1509.119873
3188.384482	0.085818	0.166426	1587.643188
3188.385377	0.085833	0.166426	1664.463257
3188.386326	0.085814	0.166426	1745.900879
3188.387236	0.085833	0.166426	1824.008423
3188.388127	0.085796	0.166426	1900.452515
3189.380815	1.095480	0.181105	479.820129
3189.381712	0.704301	0.181105	1111.577637
3189.382649	0.089421	0.181105	1195.365479
3189.383565	0.085785	0.181105	1273.944458
3189.384485	0.085884	0.181105	1352.957520
3189.385373	0.085811	0.181105	1429.157227
3189.386322	0.085869	0.181105	1510.647095
3189.387220	0.085807	0.181105	1587.701660
3189.388107	0.085822	0.181105	1663.825317
3189.389036	0.085913	0.181105	1743.638550
3189.389945	0.085920	0.181105	1821.740234
3189.390865	0.085811	0.181105	1900.685913
3190.436569	1.107023	0.168601	493.732086
3190.437472	0.676747	0.168601	1104.834473
3190.438361	0.090245	0.168601	1185.062622
3190.439292	0.085767	0.168601	1264.911377
3190.440206	0.085800	0.168601	1343.332153
3190.441124	0.085822	0.168601	1422.116333
3190.442015	0.085939	0.168601	1498.687744
3190.442963	0.085800	0.168601	1580.025757
3190.443856	0.085741	0.168601	1656.592407
3190.444772	0.085756	0.168601	1735.144531
3190.445670	0.085844	0.168601	1812.231934
3190.446619	0.085767	0.168601	1893.624390
3191.455436	1.108392	0.176304	487.692627
3191.456420	0.581364	0.176304	1059.754395
3191.457340	0.088099	0.176304	1140.805786
3191.458231	0.085840	0.176304	1217.289062
3191.459147	0.085876	0.176304	1295.951904
3191.460083	0.085822	0.176304	1376.280884
3191.461000	0.085851	0.176304	1455.006104
3191.461891	0.085913	0.176304	1531.554687
3191.462822	0.085767	0.176304	1611.403442
3191.463729	0.085723	0.176304	1689.153931
3191.464649	0.085891	0.176304	1768.173706
3191.465538	0.085822	0.176304	1844.468994
3192.495310	1.107946	0.176807	493.035767
3192.496275	0.574600	0.176807	1047.524414
3192.497209	0.087814	0.176807	1129.542480
3192.498098	0.085792	0.176807	1205.811768
3192.499045	0.085891	0.176807	1287.150635
3192.499949	0.085895	0.176807	1364.799561
3192.500871	0.085884	0.176807	1443.984375
3192.501760	0.085803	0.176807	1520.263428
3192.502701	0.085847	0.176807	1601.045654
3192.503606	0.085800	0.176807	1678.694214
3192.504520	0.085811	0.176807	1757.125000
3192.505412	0.085811	0.176807	1833.667969
3193.526994	1.110513	0.172102	493.067596
3193.527896	0.689396	0.172102	1114.902588
3193.528833	0.089725	0.172102	1198.975220
3193.529742	0.085774	0.172102	1276.943726
3193.530662	0.085818	0.172102	1355.896118
3193.531551	0.085858	0.172102	1432.223999
3193.532502	0.085818	0.172102	1513.836792
3193.533398	0.085814	0.172102	1590.726318
3193.534283	0.085844	0.172102	1666.697876
3193.535212	0.085858	0.172102	1746.460083
3193.536129	0.085796	0.172102	1825.134888
3193.537029	0.085854	0.172102	1902.403931
3194.559968	1.118906	0.187752	507.983398
3194.560871	0.669185	0.187752	1112.257080
3194.561812	0.089919	0.187752	1196.871216
3194.562717	0.085660	0.187752	1274.393921
3194.563628	0.085833	0.187752	1352.587402
3194.564521	0.085851	0.187752	1429.252197
3194.565458	0.085770	0.187752	1509.618896
3194.566373	0.085741	0.187752	1588.071899
3194.567296	0.085789	0.187752	1667.254761
3194.568185	0.085814	0.187752	1743.543579
3194.569123	0.085785	0.187752	1824.009766
3194.570017	0.085781	0.187752	1900.698242
3195.591439	1.162119	0.163252	586.870178
3195.592362	0.569876	0.163252	1112.865234
3195.593261	0.088293	0.163252	1192.241089
3195.594148	0.085851	0.163252	1268.390747
3195.595096	0.085898	0.163252	1349.822510
3195.595998	0.085869	0.163252	1427.276489
3195.596891	0.085836	0.163252	1503.928223
3195.597800	0.085829	0.163252	1581.946655
3195.598730	0.085829	0.163252	1661.767456
3195.599634	0.085851	0.163252	1739.376587
3195.600551	0.085844	0.163252	1818.095093
3195.601439	0.085796	0.163252	1894.281860
3196.631546	1.122850	0.189694	544.582397
3196.632490	0.551228	0.189694	1064.941650
3196.633393	0.087982	0.189694	1144.389526
3196.634286	0.085825	0.189694	1221.031372
3196.635227	0.085807	0.189694	1301.775635
3196.636139	0.085789	0.189694	1380.014771
3196.637053	0.085895	0.189694	1458.522583
3196.637941	0.085833	0.189694	1534.741821
3196.638881	0.085763	0.189694	1615.359009
3196.639773	0.085844	0.189694	1691.931396
3196.640665	0.085814	0.189694	1768.477661
3196.641604	0.085825	0.189694	1849.067505
3197.649359	1.100273	0.160186	485.220612
3197.650262	0.698511	0.160186	1115.975830
3197.651149	0.090677	0.160186	1196.406738
3197.652093	0.085854	0.160186	1277.453369
3197.653006	0.085829	0.160186	1355.815186
3197.653896	0.085789	0.160186	1432.166992
3197.654825	0.085833	0.160186	1511.905396
3197.655746	0.085851	0.160186	1590.973999
3197.656643	0.085800	0.160186	1667.936157
3197.657534	0.085807	0.160186	1744.390137
3197.658470	0.085854	0.160186	1824.750000
3197.659386	0.085836	0.160186	1903.375977
3198.708167	1.104152	0.188002	480.305939
3198.709146	0.598682	0.188002	1066.415283
3198.710077	0.087975	0.188002	1148.319824
3198.710967	0.085763	0.188002	1224.648804
3198.711893	0.085748	0.188002	1304.051758
3198.712819	0.085807	0.188002	1383.508911
3198.713737	0.085887	0.188002	1462.353638
3198.714628	0.085814	0.188002	1538.814087
3198.715595	0.085822	0.188002	1621.803467
3198.716501	0.085763	0.188002	1699.504639
3198.717418	0.085792	0.188002	1778.176147
3198.718306	0.085792	0.188002	1854.359619
3199.706330	1.118361	0.166865	506.617310
3199.707232	0.677607	0.166865	1117.819214
3199.708116	0.090399	0.166865	1197.732056
3199.709069	0.085686	0.166865	1279.390869
3199.709995	0.085811	0.166865	1358.851440
3199.710898	0.085833	0.166865	1436.358154
3199.711836	0.085873	0.166865	1516.906860
3199.712735	0.085818	0.166865	1594.057129
3199.713655	0.085887	0.166865	1673.073608
3199.714551	0.085902	0.166865	1750.041870
3199.715512	0.085715	0.166865	1832.414307
3199.716411	0.085811	0.166865	1909.557983
3200.782833	1.129160	0.181858	537.480225
3200.783747	0.617966	0.181858	1102.301514
3200.784637	0.089161	0.181858	1181.655151
3200.785580	0.085737	0.181858	1262.505371
3200.786502	0.085825	0.181858	1341.636230
3200.787413	0.085811	0.181858	1419.809570
3200.788307	0.085822	0.181858	1496.534058
3200.789251	0.085759	0.181858	1577.490845
3200.790173	0.085840	0.181858	1656.635132
3200.791087	0.085807	0.181858	1735.062622
3200.791993	0.085781	0.181858	1812.780396
3200.792923	0.085726	0.181858	1892.505859
3201.767371	1.099706	0.175731	479.471741
3201.768335	0.629659	0.175731	1086.463379
3201.769253	0.088656	0.175731	1167.849609
3201.770175	0.085814	0.175731	1246.970337
3201.771062	0.085854	0.175731	1323.123291
3201.771998	0.085803	0.175731	1403.435059
3201.772911	0.085862	0.175731	1481.826904
3201.773831	0.085858	0.175731	1560.816406
3201.774725	0.085833	0.175731	1637.550659
3201.775682	0.085829	0.175731	1719.688843
3201.776604	0.085807	0.175731	1798.802734
3201.777494	0.085770	0.175731	1875.138306
3202.852094	1.155176	0.173693	567.191284
3202.853051	0.536371	0.173693	1080.498291
3202.853982	0.087396	0.173693	1161.864136
3202.854872	0.085719	0.173693	1238.154053
3202.855824	0.085803	0.173693	1319.838745
3202.856749	0.085833	0.173693	1399.233765
3202.857652	0.085800	0.173693	1476.710815
3202.858573	0.085781	0.173693	1555.715332
3202.859510	0.085836	0.173693	1636.143799
3202.860422	0.085774	0.173693	1714.369629
3202.861319	0.085836	0.173693	1791.364746
3202.862264	0.085719	0.173693	1872.369141
3203.835863	1.110597	0.181548	493.105011
3203.836770	0.673857	0.181548	1104.293701
3203.837662	0.090055	0.181548	1184.622681
3203.838616	0.085730	0.181548	1266.409058
3203.839542	0.085774	0.181548	1345.835693
3203.840428	0.085803	0.181548	1421.857300
3203.841361	0.085873	0.181548	1501.976685
3203.842277	0.085865	0.181548	1580.629517
3203.843197	0.085822	0.181548	1659.585327
3203.844089	0.085811	0.181548	1736.128296
3203.845017	0.085891	0.181548	1815.835205
3203.845916	0.085789	0.181548	1892.959106
3204.912866	1.112054	0.170442	503.760681
3204.913762	0.671851	0.170442	1105.738770
3204.914702	0.090033	0.170442	1190.369751
3204.915632	0.085774	0.170442	1270.139526
3204.916555	0.085800	0.170442	1349.332520
3204.917448	0.085803	0.170442	1425.954834
3204.918371	0.085851	0.170442	1505.195190
3204.919306	0.085814	0.170442	1585.431519
3204.920229	0.085796	0.170442	1664.621094
3204.921119	0.085847	0.170442	1741.025024
3204.922046	0.085854	0.170442	1820.612183
3204.922980	0.085811	0.170442	1900.759277
3205.909976	1.110850	0.186342	488.773834
3205.910878	0.671898	0.186342	1094.826050
3205.911832	0.088564	0.186342	1179.316528
3205.912752	0.085737	0.186342	1258.194824
3205.913645	0.085854	0.186342	1334.862915
3205.914580	0.085836	0.186342	1415.119751
3205.915491	0.085829	0.186342	1493.309814
3205.916403	0.085803	0.186342	1571.562378
3205.917292	0.085880	0.186342	1647.909790
3205.918245	0.085778	0.186342	1729.655884
3205.919147	0.085913	0.186342	1807.149536
3205.920065	0.085803	0.186342	1885.916870
3206.970063	1.107015	0.171538	488.193787
3206.971018	0.646600	0.171538	1105.697144
3206.971941	0.088440	0.171538	1187.327148
3206.972866	0.085807	0.171538	1266.698486
3206.973752	0.085767	0.171538	1342.687744
3206.974698	0.085822	0.171538	1423.874878
3206.975607	0.085752	0.171538	1501.823364
3206.976530	0.085858	0.171538	1581.070435
3206.977418	0.085862	0.171538	1657.315674
3206.978366	0.085800	0.171538	1738.653687
3206.979292	0.085854	0.171538	1818.154907
3206.980185	0.085895	0.171538	1894.858887
3207.985624	1.126337	0.181806	506.851471
3207.986563	0.619995	0.181806	1089.026855
3207.987450	0.089319	0.181806	1168.252686
3207.988424	0.085734	0.181806	1251.757202
3207.989343	0.085865	0.181806	1330.667603
3207.990234	0.085873	0.181806	1407.180298
3207.991172	0.085807	0.181806	1487.667114
3207.992080	0.085829	0.181806	1565.599731
3207.992997	0.085858	0.181806	1644.331665
3207.993890	0.085887	0.181806	1721.029175
3207.994845	0.085836	0.181806	1803.002686
3207.995764	0.085807	0.181806	1881.859253
3209.029583	1.101562	0.179703	484.687500
3209.030481	0.687924	0.179703	1102.442871
3209.031440	0.088586	0.179703	1187.397217
3209.032371	0.085825	0.179703	1267.300537
3209.033272	0.085873	0.179703	1344.671875
3209.034214	0.085796	0.179703	1425.491577
3209.035127	0.085789	0.179703	1503.816528
3209.036044	0.085833	0.179703	1582.524902
3209.036934	0.085734	0.179703	1658.827881
3209.037895	0.085781	0.179703	1741.263672
3209.038803	0.085829	0.179703	1819.196289
3209.039712	0.085737	0.179703	1897.131470
3210.057168	1.121759	0.178612	499.182739
3210.058142	0.571311	0.178612	1055.639648
3210.059074	0.087722	0.178612	1137.396729
3210.059977	0.085851	0.178612	1214.920044
3210.060913	0.085822	0.178612	1295.249023
3210.061819	0.085781	0.178612	1372.966797
3210.062739	0.085811	0.178612	1451.912476
3210.063630	0.085778	0.178612	1528.340332
3210.064588	0.085833	0.178612	1610.567871
3210.065506	0.085741	0.178612	1689.278076
3210.066399	0.085880	0.178612	1765.968994
3210.067324	0.085840	0.178612	1845.370850
3211.092436	1.110670	0.187200	490.916168
3211.093338	0.689927	0.187200	1113.230103
3211.094282	0.089282	0.187200	1197.512573
3211.095191	0.085854	0.187200	1275.554321
3211.096115	0.085836	0.187200	1354.866943
3211.097000	0.085858	0.187200	1430.851440
3211.097947	0.085796	0.187200	1512.100098
3211.098864	0.085891	0.187200	1590.862305
3211.099749	0.085913	0.187200	1666.895386
3211.100688	0.085865	0.187200	1747.523071
3211.101598	0.085865	0.187200	1825.660645
3211.102520	0.085807	0.187200	1904.774536
3212.125427	1.121803	0.174656	528.369202
3212.126332	0.637972	0.174656	1105.734253
3212.127220	0.089476	0.174656	1185.189209
3212.128168	0.085906	0.174656	1266.627930
3212.129104	0.085800	0.174656	1346.936279
3212.130001	0.085796	0.174656	1423.895264
3212.130921	0.085763	0.174656	1502.797119
3212.131857	0.085792	0.174656	1583.098633
3212.132783	0.085796	0.174656	1662.545654
3212.133672	0.085818	0.174656	1738.837769
3212.134609	0.085822	0.174656	1819.252563
3212.135535	0.085803	0.174656	1898.706299
3213.158130	1.115548	0.190983	525.423096
3213.159068	0.607859	0.190983	1095.594727
3213.159962	0.088733	0.190983	1174.921997
3213.160891	0.085833	0.190983	1254.660400
3213.161805	0.085778	0.190983	1333.061157
3213.162745	0.085726	0.190983	1413.643921
3213.163648	0.085785	0.190983	1491.107666
3213.164574	0.085796	0.190983	1570.554687
3213.165507	0.085712	0.190983	1650.523682
3213.166421	0.085763	0.190983	1728.911011
3213.167312	0.085792	0.190983	1805.351929
3213.168258	0.085756	0.190983	1886.476807
3214.191848	1.116588	0.169314	518.096863
3214.192767	0.634984	0.169314	1101.647217
3214.193657	0.089337	0.169314	1181.157227
3214.194584	0.085712	0.169314	1260.611938
3214.195520	0.085741	0.169314	1340.865479
3214.196438	0.085822	0.169314	1419.649658
3214.197328	0.085807	0.169314	1496.017822
3214.198261	0.085763	0.169314	1576.034668
3214.199209	0.085778	0.169314	1657.351807
3214.200108	0.085847	0.169314	1734.528442
3214.201016	0.085774	0.169314	1812.411133
3214.201950	0.085734	0.169314	1892.486328
3215.225333	1.139440	0.192989	536.676086
3215.226277	0.579181	0.192989	1083.422852
3215.227171	0.088337	0.192989	1162.396484
3215.228101	0.085737	0.192989	1242.132202
3215.229044	0.085796	0.192989	1323.037720
3215.229967	0.085880	0.192989	1402.305054
3215.230854	0.085737	0.192989	1478.354004
3215.231794	0.085822	0.192989	1559.026245
3215.232726	0.085836	0.192989	1639.025513
3215.233624	0.085796	0.192989	1716.070190
3215.234542	0.085836	0.192989	1794.867798
3215.235480	0.085796	0.192989	1875.344360
3216.257483	1.097186	0.165532	478.373199
3216.258437	0.628217	0.165532	1077.691772
3216.259371	0.088261	0.165532	1160.127075
3216.260291	0.085785	0.165532	1239.049194
3216.261188	0.085752	0.165532	1315.968750
3216.262136	0.085844	0.165532	1397.348389
3216.263067	0.085785	0.165532	1477.214111
3216.263965	0.085814	0.165532	1554.275269
3216.264882	0.085836	0.165532	1632.987061
3216.265821	0.085796	0.165532	1713.549438
3216.266741	0.085836	0.165532	1792.518677
3216.267632	0.085818	0.165532	1868.982422
3217.292771	1.116797	0.194427	507.025757
3217.293671	0.668379	0.194427	1108.566772
3217.294594	0.089835	0.194427	1191.484619
3217.295529	0.085697	0.194427	1271.611328
3217.296459	0.085737	0.194427	1351.347046
3217.297355	0.085770	0.194427	1428.197266
3217.298291	0.085763	0.194427	1508.471436
3217.299221	0.085789	0.194427	1588.254761
3217.300142	0.085778	0.194427	1667.255859
3217.301027	0.085778	0.194427	1743.169067
3217.301968	0.085748	0.194427	1823.858154
3217.302897	0.085778	0.194427	1903.545532
3218.322398	1.121858	0.164875	503.714203
3218.323317	0.650779	0.164875	1101.779907
3218.324220	0.089260	0.164875	1182.381958
3218.325143	0.085833	0.164875	1261.605347
3218.326051	0.085851	0.164875	1339.557861
3218.326959	0.085807	0.164875	1417.470459
3218.327855	0.085854	0.164875	1494.396118
3218.328801	0.085946	0.164875	1575.701050
3218.329697	0.085800	0.164875	1652.577393
3218.330595	0.085865	0.164875	1729.684570
3218.331484	0.085781	0.164875	1805.944092
3218.332419	0.085902	0.164875	1886.262573
3219.358943	1.114153	0.194487	495.798004
3219.359862	0.669020	0.194487	1110.627197
3219.360764	0.089593	0.194487	1191.440552
3219.361684	0.085869	0.194487	1270.440186
3219.362614	0.085880	0.194487	1350.308716
3219.363526	0.085840	0.194487	1428.594604
3219.364424	0.085851	0.194487	1505.688599
3219.365360	0.085898	0.194487	1586.089600
3219.366259	0.085876	0.194487	1663.292480
3219.367155	0.085865	0.194487	1740.227905
3219.368042	0.085734	0.194487	1816.273682
3219.368990	0.085858	0.194487	1897.667236
3220.389595	1.123319	0.165576	503.246979
3220.390504	0.669767	0.165576	1112.065063
3220.391392	0.089919	0.165576	1191.913574
3220.392331	0.085785	0.165576	1272.465576
3220.393232	0.085770	0.165576	1349.744629
3220.394129	0.085833	0.165576	1426.736450
3220.395061	0.085803	0.165576	1506.705078
3220.395968	0.085858	0.165576	1584.578369
3220.396865	0.085752	0.165576	1661.497925
3220.397754	0.085869	0.165576	1737.835571
3220.398705	0.085847	0.165576	1819.476196
3220.399607	0.085847	0.165576	1896.910400
3221.424076	1.101537	0.193738	479.168549
3221.425028	0.655386	0.193738	1103.095825
3221.425930	0.088865	0.193738	1183.251831
3221.426835	0.085756	0.193738	1260.860718
3221.427723	0.085748	0.193738	1337.005249
3221.428658	0.085873	0.193738	1417.296387
3221.429560	0.085844	0.193738	1494.727173
3221.430465	0.085800	0.193738	1572.375732
3221.431352	0.085785	0.193738	1648.466919
3221.432297	0.085946	0.193738	1729.685913
3221.433205	0.085854	0.193738	1807.641846
3221.434094	0.085785	0.193738	1883.904663
3222.457291	1.097813	0.166297	479.744080
3222.458191	0.690220	0.166297	1100.941895
3222.459158	0.088510	0.166297	1186.530640
3222.460054	0.085829	0.166297	1263.433350
3222.460946	0.085822	0.166297	1339.986206
3222.461859	0.085789	0.166297	1418.311157
3222.462772	0.085825	0.166297	1496.669556
3222.463667	0.085752	0.166297	1573.417603
3222.464554	0.085847	0.166297	1649.564087
3222.465482	0.085924	0.166297	1729.301636
3222.466399	0.085851	0.166297	1808.026855
3222.467302	0.085789	0.166297	1885.493896
3223.490008	1.105287	0.189343	498.484375
3223.490900	0.690172	0.189343	1114.117920
3223.491838	0.090443	0.189343	1198.953613
3223.492743	0.085858	0.189343	1276.655273
3223.493654	0.085858	0.189343	1354.872070
3223.494544	0.085869	0.189343	1431.295654
3223.495496	0.085865	0.189343	1513.039551
3223.496395	0.085800	0.189343	1590.173340
3223.497293	0.085778	0.189343	1667.201660
3223.498182	0.085814	0.189343	1743.490479
3223.499124	0.085858	0.189343	1824.368896
3223.500019	0.085781	0.189343	1901.143066
3224.525255	1.117405	0.168364	489.423309
3224.526256	0.541838	0.168364	1031.803467
3224.527158	0.087836	0.168364	1111.031250
3224.528048	0.085792	0.168364	1187.386353
3224.528976	0.085854	0.168364	1267.059326
3224.529881	0.085778	0.168364	1344.687988
3224.530807	0.085767	0.168364	1424.107910
3224.531697	0.085818	0.168364	1500.485840
3224.532648	0.085840	0.168364	1582.119507
3224.533542	0.085715	0.168364	1658.749023
3224.534434	0.085829	0.168364	1735.308350
3224.535346	0.085898	0.168364	1813.647705
3225.557463	1.113695	0.185190	498.935364
3225.558363	0.683536	0.185190	1114.118164
3225.559323	0.089714	0.185190	1200.243896
3225.560221	0.085818	0.185190	1277.308350
3225.561139	0.085770	0.185190	1356.045410
3225.562025	0.085792	0.185190	1432.057373
3225.562965	0.085858	0.185190	1512.764038
3225.563876	0.085803	0.185190	1590.930786
3225.564772	0.085811	0.185190	1667.817017
3225.565683	0.085811	0.185190	1745.990479
3225.566615	0.085774	0.185190	1825.931763
3225.567541	0.085833	0.185190	1905.412720
3226.591693	1.106671	0.173294	489.148621
3226.592586	0.682035	0.173294	1098.205811
3226.593562	0.088839	0.173294	1184.912842
3226.594491	0.085822	0.173294	1264.640991
3226.595388	0.085854	0.173294	1341.652466
3226.596310	0.085803	0.173294	1420.763062
3226.597245	0.085829	0.173294	1501.013062
3226.598167	0.085884	0.173294	1580.197876
3226.599056	0.085800	0.173294	1656.473633
3226.600004	0.085884	0.173294	1737.891479
3226.600937	0.085774	0.173294	1817.918579
3226.601836	0.085833	0.173294	1895.082031
3227.626489	1.127183	0.181488	535.411743
3227.627410	0.619999	0.181488	1106.430664
3227.628342	0.088282	0.181488	1188.709961
3227.629232	0.085822	0.181488	1265.091064
3227.630183	0.085822	0.181488	1346.707397
3227.631111	0.085891	0.181488	1426.414307
3227.632007	0.085876	0.181488	1503.359619
3227.632920	0.085851	0.181488	1581.741455
3227.633853	0.085803	0.181488	1661.795898
3227.634791	0.085811	0.181488	1742.286133
3227.635691	0.085789	0.181488	1819.495850
3227.636606	0.085884	0.181488	1898.079468
3228.654053	1.133178	0.179953	522.394836
3228.654968	0.640822	0.179953	1108.746582
3228.655855	0.089575	0.179953	1188.199829
3228.656809	0.085748	0.179953	1270.003662
3228.657745	0.085811	0.179953	1350.322266
3228.658639	0.085854	0.179953	1427.076172
3228.659564	0.085800	0.179953	1506.440796
3228.660493	0.085785	0.179953	1586.135010
3228.661424	0.085807	0.179953	1666.021240
3228.662326	0.085818	0.179953	1743.428955
3228.663235	0.085829	0.179953	1821.447388
3228.664177	0.085745	0.179953	1902.218872
3229.699013	1.095267	0.175288	475.346008
3229.699946	0.674828	0.175288	1104.960449
3229.700889	0.088608	0.175288	1188.518188
3229.701802	0.085767	0.175288	1266.823120
3229.702694	0.085767	0.175288	1343.326904
3229.703635	0.085807	0.175288	1424.071167
3229.704551	0.085873	0.175288	1502.730713
3229.705479	0.085862	0.175288	1582.410522
3229.706373	0.085884	0.175288	1659.190674
3229.707315	0.085865	0.175288	1740.075928
3229.708244	0.085818	0.175288	1819.800781
3229.709138	0.085876	0.175288	1896.574341
3230.713840	1.123081	0.186451	522.232666
3230.714780	0.604706	0.186451	1090.656128
3230.715669	0.088799	0.186451	1169.598267
3230.716589	0.085774	0.186451	1248.510254
3230.717525	0.085789	0.186451	1328.808350
3230.718439	0.085811	0.186451	1407.239136
3230.719337	0.085836	0.186451	1484.320068
3230.720272	0.085818	0.186451	1564.559814
3230.721196	0.085770	0.186451	1643.811523
3230.722111	0.085807	0.186451	1722.324829
3230.723002	0.085847	0.186451	1798.814697
3230.723950	0.085756	0.186451	1880.111084
3231.774215	1.180159	0.172730	590.079285
3231.775130	0.581184	0.172730	1121.862793
3231.776025	0.088425	0.172730	1201.003418
3231.776915	0.085854	0.172730	1277.413940
3231.777857	0.085909	0.172730	1358.340576
3231.778766	0.085814	0.172730	1436.345703
3231.779666	0.085807	0.172730	1513.571899
3231.780593	0.085847	0.172730	1593.152222
3231.781496	0.085814	0.172730	1670.642456
3231.782394	0.085792	0.172730	1747.683838
3231.783281	0.085829	0.172730	1823.814087
3231.784221	0.085869	0.172730	1904.531128
3232.771812	1.135865	0.189895	517.954651
3232.772707	0.671609	0.189895	1119.044556
3232.773670	0.089030	0.189895	1204.780029
3232.774570	0.085854	0.189895	1282.049072
3232.775476	0.085712	0.189895	1359.703857
3232.776369	0.085785	0.189895	1436.309814
3232.777297	0.085781	0.189895	1515.914795
3232.778199	0.085851	0.189895	1593.352295
3232.779104	0.085759	0.189895	1670.964478
3232.779990	0.085778	0.189895	1746.963379
3232.780933	0.085807	0.189895	1827.879272
3232.781838	0.085767	0.189895	1905.498047
3233.848019	1.112750	0.172279	490.722839
3233.848929	0.678296	0.172279	1107.972046
3233.849819	0.090187	0.172279	1188.238281
3233.850767	0.085887	0.172279	1269.659546
3233.851675	0.085891	0.172279	1347.648682
3233.852587	0.085858	0.172279	1425.951294
3233.853473	0.085869	0.172279	1502.031372
3233.854414	0.085906	0.172279	1582.868652
3233.855322	0.085803	0.172279	1660.777954
3233.856211	0.085869	0.172279	1737.115601
3233.857144	0.085906	0.172279	1817.265625
3233.858037	0.085887	0.172279	1893.963135
3234.832079	1.107506	0.186169	489.517731
3234.832976	0.697280	0.186169	1114.978149
3234.833906	0.089495	0.186169	1198.208130
3234.834816	0.085840	0.186169	1276.322388
3234.835726	0.085792	0.186169	1354.393311
3234.836625	0.085730	0.186169	1431.464600
3234.837575	0.085829	0.186169	1513.002075
3234.838478	0.085854	0.186169	1590.528687
3234.839372	0.085814	0.186169	1667.246582
3234.840306	0.085829	0.186169	1747.410767
3234.841213	0.085884	0.186169	1825.307373
3234.842115	0.085792	0.186169	1902.692017
3235.917822	1.136829	0.179039	559.319702
3235.918746	0.583711	0.179039	1098.668701
3235.919666	0.087931	0.179039	1179.565186
3235.920557	0.085774	0.179039	1255.989746
3235.921509	0.085898	0.179039	1337.765015
3235.922412	0.085822	0.179039	1415.261841
3235.923301	0.085906	0.179039	1491.632080
3235.924208	0.085935	0.179039	1569.575195
3235.925138	0.085734	0.179039	1649.307495
3235.926036	0.085906	0.179039	1726.450928
3235.926925	0.085822	0.179039	1802.746216
3235.927848	0.085913	0.179039	1882.043945
3236.898790	1.127600	0.177673	514.185608
3236.899693	0.661373	0.177673	1111.405762
3236.900646	0.089509	0.177673	1196.708130
3236.901556	0.085811	0.177673	1274.795776
3236.902456	0.085836	0.177673	1352.048340
3236.903349	0.085814	0.177673	1428.680420
3236.904285	0.085876	0.177673	1509.060791
3236.905182	0.085803	0.177673	1586.026245
3236.906105	0.085873	0.177673	1665.286865
3236.906995	0.085862	0.177673	1741.703857
3236.907944	0.085862	0.177673	1823.186768
3236.908846	0.085800	0.177673	1900.578003
3237.980618	1.101511	0.190411	484.664886
3237.981610	0.562965	0.190411	1043.126221
3237.982521	0.088059	0.190411	1123.348022
3237.983441	0.085854	0.190411	1202.334106
3237.984328	0.085840	0.190411	1278.473999
3237.985278	0.085814	0.190411	1359.997559
3237.986188	0.085807	0.190411	1438.081787
3237.987082	0.085844	0.190411	1514.825928
3237.988022	0.085833	0.190411	1595.508545
3237.988932	0.085869	0.190411	1673.649414
3237.989844	0.085840	0.190411	1751.935303
3237.990741	0.085895	0.190411	1828.982910
3238.971389	1.157930	0.169669	563.911743
3238.972313	0.588080	0.169669	1107.297607
3238.973227	0.088118	0.169669	1187.837158
3238.974123	0.085767	0.169669	1264.684082
3238.975076	0.085756	0.169669	1346.409180
3238.975993	0.085730	0.169669	1425.023560
3238.976882	0.085803	0.169669	1501.302612
3238.977803	0.085796	0.169669	1580.320679
3238.978731	0.085825	0.169669	1659.966431
3238.979659	0.085811	0.169669	1739.598633
3238.980552	0.085825	0.169669	1816.240479
3238.981488	0.085763	0.169669	1896.514648
3240.039159	1.135225	0.196775	539.231750
3240.040067	0.627671	0.196775	1109.156982
3240.040959	0.089242	0.196775	1188.760742
3240.041918	0.085770	0.196775	1271.014404
3240.042845	0.085748	0.196775	1350.503052
3240.043742	0.085741	0.196775	1427.412720
3240.044661	0.085818	0.196775	1506.279297
3240.045600	0.085785	0.196775	1586.831299
3240.046515	0.085825	0.196775	1665.361328
3240.047403	0.085895	0.196775	1741.635864
3240.048355	0.085752	0.196775	1823.271729
3240.049275	0.085767	0.196775	1902.177002
3241.047496	1.100196	0.164738	482.986267
3241.048486	0.610422	0.164738	1087.304443
3241.049402	0.087847	0.164738	1167.771973
3241.050299	0.085825	0.164738	1244.757202
3241.051217	0.085708	0.164738	1323.437134
3241.052150	0.085854	0.164738	1403.539429
3241.053074	0.085752	0.164738	1482.774170
3241.053972	0.085844	0.164738	1559.861572
3241.054888	0.085781	0.164738	1638.437256
3241.055812	0.085759	0.164738	1717.678833
3241.056743	0.085862	0.164738	1797.616211
3241.057635	0.085770	0.164738	1874.123291
3242.097606	1.093253	0.200530	473.378601
3242.098541	0.692142	0.200530	1120.531738
3242.099489	0.089092	0.200530	1204.990723
3242.100410	0.085825	0.200530	1284.035767
3242.101298	0.085833	0.200530	1360.255005
3242.102240	0.085865	0.200530	1441.140259
3242.103165	0.085756	0.200530	1520.464233
3242.104081	0.085785	0.200530	1599.043213
3242.104975	0.085778	0.200530	1675.728394
3242.105923	0.085778	0.200530	1757.045532
3242.106855	0.085851	0.200530	1837.058472
3242.107754	0.085800	0.200530	1914.192261
3243.121865	1.109648	0.165963	484.916321
3243.122851	0.573127	0.165963	1050.020020
3243.123768	0.087964	0.165963	1130.682861
3243.124656	0.085880	0.165963	1206.944458
3243.125578	0.085767	0.165963	1286.021240
3243.126512	0.085906	0.165963	1366.257202
3243.127420	0.085818	0.165963	1444.179810
3243.128316	0.085825	0.165963	1521.079224
3243.129269	0.085778	0.165963	1602.825317
3243.130209	0.085876	0.165963	1683.549194
3243.131113	0.085917	0.165963	1761.217896
3243.132033	0.085822	0.165963	1840.173706
3244.157901	1.101779	0.198568	485.884308
3244.158797	0.698364	0.198568	1111.618652
3244.159763	0.088469	0.198568	1197.079956
3244.160679	0.085884	0.198568	1275.749512
3244.161583	0.085840	0.198568	1353.348755
3244.162493	0.085836	0.198568	1431.459717
3244.163412	0.085935	0.198568	1510.434082
3244.164319	0.085822	0.198568	1588.274170
3244.165207	0.085865	0.198568	1664.522705
3244.166146	0.085906	0.198568	1745.188232
3244.167051	0.085862	0.198568	1822.893188
3244.167953	0.085876	0.198568	1900.353760
3245.191876	1.096904	0.170809	476.056458
3245.192862	0.595704	0.170809	1063.420898
3245.193772	0.088304	0.170809	1143.777954
3245.194665	0.085807	0.170809	1220.403564
3245.195557	0.085814	0.170809	1296.949829
3245.196494	0.085873	0.170809	1377.412598
3245.197399	0.085807	0.170809	1455.067871
3245.198296	0.085833	0.170809	1532.059692
3245.199227	0.085847	0.170809	1611.983398
3245.200130	0.085803	0.170809	1689.463745
3245.201024	0.085807	0.170809	1766.175049
3245.201912	0.085873	0.170809	1842.430054
3246.222310	1.118291	0.192864	521.123596
3246.223254	0.599498	0.192864	1087.050049
3246.224155	0.088586	0.192864	1166.866455
3246.225051	0.085800	0.192864	1243.742920
3246.225977	0.085884	0.192864	1323.271362
3246.226884	0.085920	0.192864	1401.201172
3246.227788	0.085844	0.192864	1478.803711
3246.228674	0.085898	0.192864	1554.909668
3246.229609	0.085957	0.192864	1635.279541
3246.230519	0.085818	0.192864	1713.373779
3246.231412	0.085840	0.192864	1790.028809
3246.232323	0.085895	0.192864	1868.278931
3247.258315	1.097633	0.178334	477.470398
3247.259210	0.694918	0.178334	1099.422119
3247.260173	0.088806	0.178334	1184.942383
3247.261079	0.085778	0.178334	1262.656860
3247.261969	0.085844	0.178334	1339.057617
3247.262908	0.085869	0.178334	1419.688721
3247.263810	0.085785	0.178334	1497.066650
3247.264700	0.085811	0.178334	1573.437988
3247.265591	0.085851	0.178334	1649.931030
3247.266526	0.085880	0.178334	1730.229004
3247.267434	0.085759	0.178334	1808.098389
3247.268337	0.085734	0.178334	1885.515869
3248.291022	1.106191	0.189661	488.936584
3248.291923	0.689626	0.189661	1110.290039
3248.292859	0.089828	0.189661	1194.368896
3248.293775	0.085748	0.189661	1272.914307
3248.294677	0.085829	0.189661	1350.331909
3248.295567	0.085789	0.189661	1426.683716
3248.296530	0.085854	0.189661	1509.361572
3248.297426	0.085745	0.189661	1586.188721
3248.298315	0.085789	0.189661	1662.454712
3248.299225	0.085748	0.189661	1740.485596
3248.300165	0.085825	0.189661	1821.161255
3248.301065	0.085789	0.189661	1898.370972
3249.322489	1.124974	0.187518	543.362610
3249.323422	0.573094	0.187518	1078.059814
3249.324334	0.088103	0.187518	1158.409790
3249.325225	0.085792	0.187518	1234.850708
3249.326171	0.085833	0.187518	1316.048218
3249.327074	0.085792	0.187518	1393.518555
3249.327972	0.085781	0.187518	1470.550171
3249.328861	0.085807	0.187518	1546.832520
3249.329792	0.085884	0.187518	1626.790283
3249.330696	0.085833	0.187518	1704.382812
3249.331584	0.085822	0.187518	1780.592285
3249.332507	0.085770	0.187518	1859.758301
3250.361556	1.110106	0.186741	495.107330
3250.362448	0.692688	0.186741	1112.984985
3250.363393	0.089180	0.186741	1197.259766
3250.364290	0.085704	0.186741	1274.136597
3250.365180	0.085825	0.186741	1350.520996
3250.366096	0.085876	0.186741	1429.183838
3250.367031	0.085818	0.186741	1509.423584
3250.367936	0.085741	0.186741	1587.019165
3250.368826	0.085829	0.186741	1663.406860
3250.369750	0.085836	0.186741	1742.719482
3250.370666	0.085811	0.186741	1821.321899
3250.371584	0.085836	0.186741	1900.119507
3251.385284	1.094271	0.190407	473.819489
3251.386232	0.657594	0.190407	1097.218628
3251.387140	0.089037	0.190407	1178.064087
3251.388070	0.085807	0.190407	1257.864502
3251.388959	0.085748	0.190407	1334.094727
3251.389907	0.085840	0.190407	1415.470947
3251.390807	0.085803	0.190407	1492.693848
3251.391720	0.085851	0.190407	1571.075684
3251.392619	0.085796	0.190407	1648.206177
3251.393579	0.085873	0.190407	1730.644043
3251.394480	0.085829	0.190407	1807.975830
3251.395369	0.085759	0.190407	1884.215820
3252.431346	1.128761	0.183772	537.290283
3252.432253	0.621903	0.183772	1101.356445
3252.433197	0.089147	0.183772	1185.510986
3252.434115	0.085851	0.183772	1264.322021
3252.435030	0.085792	0.183772	1342.821899
3252.435921	0.085792	0.183772	1419.262817
3252.436872	0.085825	0.183772	1500.882568
3252.437787	0.085734	0.183772	1579.328857
3252.438704	0.085811	0.183772	1658.017090
3252.439588	0.085869	0.183772	1733.925415
3252.440533	0.085913	0.183772	1815.113281
3252.441444	0.085876	0.183772	1893.346680
3253.448650	1.111439	0.190503	489.033264
3253.449552	0.669111	0.190503	1092.571655
3253.450527	0.088147	0.190503	1178.514893
3253.451450	0.085847	0.190503	1257.751831
3253.452344	0.085822	0.190503	1334.476318
3253.453284	0.085822	0.190503	1415.148560
3253.454203	0.085807	0.190503	1494.005127
3253.455125	0.085752	0.190503	1573.068481
3253.456012	0.085833	0.190503	1649.201904
3253.456967	0.085763	0.190503	1731.105469
3253.457881	0.085789	0.190503	1809.516235
3253.458776	0.085800	0.190503	1886.306885
3254.501091	1.136466	0.183015	525.047302
3254.502010	0.627722	0.183015	1101.923950
3254.502909	0.089301	0.183015	1182.205078
3254.503853	0.085803	0.183015	1263.203369
3254.504770	0.085891	0.183015	1341.965576
3254.505656	0.085803	0.183015	1417.987183
3254.506590	0.085803	0.183015	1498.127441
3254.507510	0.085792	0.183015	1577.056274
3254.508428	0.085770	0.183015	1655.793335
3254.509322	0.085763	0.183015	1732.465454
3254.510264	0.085796	0.183015	1813.285156
3254.511179	0.085829	0.183015	1891.818604
3255.514338	1.110275	0.190121	498.513336
3255.515241	0.676029	0.190121	1108.967529
3255.516130	0.090308	0.190121	1189.250977
3255.517081	0.085800	0.190121	1270.846313
3255.518008	0.085833	0.190121	1350.413086
3255.518901	0.085851	0.190121	1427.077881
3255.519806	0.085792	0.190121	1504.719849
3255.520748	0.085792	0.190121	1585.536133
3255.521678	0.085898	0.190121	1665.421631
3255.522577	0.085865	0.190121	1742.614746
3255.523492	0.085880	0.190121	1821.195068
3255.524437	0.085789	0.190121	1902.265259
3256.569544	1.103467	0.181786	484.421906
3256.570513	0.619310	0.181786	1084.533569
3256.571447	0.087887	0.181786	1166.619995
3256.572341	0.085844	0.181786	1243.364136
3256.573254	0.085836	0.181786	1321.732544
3256.574183	0.085822	0.181786	1401.460693
3256.575110	0.085833	0.181786	1481.027466
3256.576000	0.085792	0.181786	1557.382568
3256.576931	0.085778	0.181786	1637.241455
3256.577863	0.085785	0.181786	1717.192993
3256.578783	0.085862	0.181786	1796.185913
3256.579672	0.085785	0.181786	1872.448730
3257.581789	1.118210	0.188884	500.958282
3257.582696	0.665350	0.188884	1104.431030
3257.583630	0.089656	0.188884	1188.169556
3257.584564	0.085774	0.188884	1268.282471
3257.585483	0.085778	0.188884	1347.112061
3257.586370	0.085825	0.188884	1423.239014
3257.587319	0.085829	0.188884	1504.690552
3257.588257	0.085814	0.188884	1585.184326
3257.589161	0.085807	0.188884	1662.753784
3257.590096	0.085730	0.188884	1742.911377
3257.591010	0.085847	0.188884	1821.375732
3257.591942	0.085818	0.188884	1901.358032
3258.636488	1.097695	0.180888	476.399719
3258.637423	0.649321	0.180888	1083.515137
3258.638362	0.088751	0.180888	1166.852539
3258.639274	0.085778	0.180888	1245.081665
3258.640160	0.085723	0.180888	1321.031982
3258.641105	0.085785	0.180888	1402.098755
3258.642047	0.085807	0.180888	1482.928833
3258.642949	0.085792	0.180888	1560.313477
3258.643864	0.085785	0.180888	1638.806641
3258.644805	0.085726	0.180888	1719.475098
3258.645719	0.085726	0.180888	1797.828979
3258.646615	0.085818	0.180888	1874.721802
3259.648727	1.113263	0.186576	497.628510
3259.649627	0.683712	0.186576	1112.969482
3259.650548	0.089795	0.186576	1195.670654
3259.651491	0.085759	0.186576	1276.541626
3259.652406	0.085869	0.186576	1355.111938
3259.653295	0.085778	0.186576	1431.368164
3259.654241	0.085767	0.186576	1512.503418
3259.655180	0.085803	0.186576	1593.072632
3259.656104	0.085818	0.186576	1672.368408
3259.656988	0.085854	0.186576	1748.263794
3259.657924	0.085818	0.186576	1828.589355
3259.658828	0.085865	0.186576	1906.211792
3260.700918	1.125355	0.179530	541.295898
3260.701847	0.599070	0.179530	1097.831787
3260.702762	0.088411	0.179530	1178.727539
3260.703650	0.085785	0.179530	1254.904541
3260.704579	0.085822	0.179530	1334.632690
3260.705488	0.085807	0.179530	1412.631104
3260.706387	0.085745	0.179530	1489.715576
3260.707278	0.085825	0.179530	1566.185791
3260.708223	0.085865	0.179530	1647.328613
3260.709123	0.085796	0.179530	1724.544922
3260.710019	0.085792	0.179530	1801.414795
3260.710947	0.085789	0.179530	1881.026611
3261.716679	1.100548	0.182394	479.838928
3261.717631	0.663065	0.182394	1111.076904
3261.718540	0.088597	0.182394	1191.611938
3261.719444	0.085752	0.182394	1269.131714
3261.720331	0.085847	0.182394	1345.278198
3261.721280	0.085906	0.182394	1426.802734
3261.722179	0.085851	0.182394	1503.982666
3261.723072	0.085851	0.182394	1580.647461
3261.723959	0.085833	0.182394	1656.780884
3261.724909	0.085840	0.182394	1738.328735
3261.725817	0.085818	0.182394	1816.251343
3261.726716	0.085836	0.182394	1893.418091
3262.764285	1.152052	0.179671	562.201416
3262.765210	0.576383	0.179671	1095.355713
3262.766118	0.088392	0.179671	1175.615967
3262.767008	0.085880	0.179671	1252.049316
3262.767956	0.085825	0.179671	1333.411621
3262.768861	0.085880	0.179671	1411.133179
3262.769753	0.085796	0.179671	1487.663086
3262.770666	0.085847	0.179671	1566.041504
3262.771597	0.085887	0.179671	1646.002686
3262.772511	0.085811	0.179671	1724.433472
3262.773413	0.085851	0.179671	1801.870972
3262.774305	0.085854	0.179671	1878.453125
3263.786456	1.107942	0.181053	493.034119
3263.787348	0.690765	0.181053	1109.196777
3263.788308	0.088890	0.181053	1194.531494
3263.789206	0.085833	0.181053	1271.609131
3263.790092	0.085792	0.181053	1347.621094
3263.791000	0.085898	0.181053	1425.616821
3263.791920	0.085957	0.181053	1504.697266
3263.792824	0.085858	0.181053	1582.312988
3263.793711	0.085811	0.181053	1658.427002
3263.794644	0.085920	0.181053	1738.590698
3263.795554	0.085829	0.181053	1816.694946
3263.796450	0.085767	0.181053	1893.541870
3264.826069	1.111498	0.182459	495.727997
3264.826969	0.688711	0.182459	1115.567871
3264.827918	0.089692	0.182459	1200.685913
3264.828833	0.085781	0.182459	1279.175781
3264.829724	0.085803	0.182459	1355.626465
3264.830615	0.085796	0.182459	1432.070557
3264.831555	0.085851	0.182459	1512.770386
3264.832461	0.085763	0.182459	1590.471558
3264.833357	0.085829	0.182459	1667.374268
3264.834281	0.085891	0.182459	1746.737671
3264.835200	0.085785	0.182459	1825.573975
3264.836104	0.085840	0.182459	1903.173218
3265.855699	1.101661	0.177774	493.544281
3265.856603	0.682115	0.177774	1110.176636
3265.857490	0.090425	0.177774	1190.383423
3265.858454	0.085862	0.177774	1273.154175
3265.859352	0.085752	0.177774	1350.159424
3265.860275	0.085854	0.177774	1429.403076
3265.861163	0.085840	0.177774	1505.628906
3265.862118	0.085898	0.177774	1587.661865
3265.863016	0.085836	0.177774	1664.742798
3265.863907	0.085818	0.177774	1741.206543
3265.864841	0.085884	0.177774	1821.421997
3265.865755	0.085726	0.177774	1899.775879
3266.889432	1.115801	0.187099	503.226135
3266.890370	0.620233	0.187099	1085.004883
3266.891266	0.088997	0.187099	1164.745850
3266.892223	0.085792	0.187099	1246.848999
3266.893137	0.085807	0.187099	1325.276489
3266.894062	0.085829	0.187099	1404.668213
3266.894950	0.085734	0.187099	1480.799683
3266.895898	0.085818	0.187099	1562.155029
3266.896812	0.085719	0.187099	1640.502197
3266.897699	0.085807	0.187099	1716.612915
3266.898625	0.085789	0.187099	1796.053101
3266.899547	0.085796	0.187099	1875.156982
3267.922898	1.109861	0.175437	491.668335
3267.923804	0.684240	0.175437	1111.589355
3267.924693	0.090381	0.175437	1191.937988
3267.925664	0.085708	0.175437	1275.160400
3267.926584	0.085803	0.175437	1354.099365
3267.927477	0.085800	0.175437	1430.718384
3267.928427	0.085869	0.175437	1512.294067
3267.929326	0.085712	0.175437	1589.348877
3267.930235	0.085822	0.175437	1667.360596
3267.931131	0.085752	0.175437	1744.194336
3267.932065	0.085811	0.175437	1824.341431
3267.932982	0.085712	0.175437	1902.938965
3268.955147	1.168323	0.193782	584.161377
3268.956066	0.577083	0.193782	1114.500244
3268.956984	0.088129	0.193782	1195.402344
3268.957873	0.085822	0.193782	1271.697632
3268.958794	0.085818	0.193782	1350.735840
3268.959715	0.085770	0.193782	1429.730225
3268.960631	0.085756	0.193782	1508.282349
3268.961523	0.085752	0.193782	1584.773071
3268.962475	0.085748	0.193782	1666.405396
3268.963406	0.085774	0.193782	1746.260986
3268.964309	0.085822	0.193782	1823.757812
3268.965224	0.085789	0.193782	1902.254395
3269.987788	1.104803	0.171989	488.323120
3269.988780	0.572021	0.171989	1055.768433
3269.989701	0.087590	0.171989	1136.439087
3269.990622	0.085847	0.171989	1215.504395
3269.991515	0.085840	0.171989	1292.159424
3269.992453	0.085792	0.171989	1372.632568
3269.993396	0.085741	0.171989	1453.486328
3269.994286	0.085928	0.171989	1529.962036
3269.995211	0.085851	0.171989	1609.374023
3269.996143	0.085884	0.171989	1689.417725
3269.997066	0.085880	0.171989	1768.685059
3269.997960	0.085847	0.171989	1845.432373
3271.024886	1.123235	0.197343	543.645691
3271.025837	0.578979	0.197343	1094.255127
3271.026762	0.087579	0.197343	1175.265991
3271.027655	0.085836	0.197343	1251.917725
3271.028578	0.085796	0.197343	1331.107300
3271.029511	0.085792	0.197343	1411.151489
3271.030421	0.085781	0.197343	1489.212402
3271.031309	0.085844	0.197343	1565.441406
3271.032257	0.085844	0.197343	1646.821045
3271.033186	0.085664	0.197343	1726.402954
3271.034095	0.085803	0.197343	1804.398071
3271.034981	0.085745	0.197343	1880.367798
3272.050140	1.111754	0.170338	496.954132
3272.051041	0.679856	0.170338	1109.504395
3272.051967	0.090157	0.170338	1192.990234
3272.052907	0.085803	0.170338	1273.645264
3272.053843	0.085734	0.170338	1353.891968
3272.054741	0.085818	0.170338	1430.956421
3272.055668	0.085763	0.170338	1510.458618
3272.056606	0.085774	0.170338	1590.914551
3272.057524	0.085873	0.170338	1669.745850
3272.058408	0.085781	0.170338	1745.576416
3272.059363	0.085858	0.170338	1827.570923
3272.060299	0.085763	0.170338	1907.844971
3273.097675	1.099102	0.199728	478.109161
3273.098610	0.678486	0.199728	1112.493896
3273.099540	0.088502	0.199728	1194.800903
3273.100458	0.085734	0.199728	1273.504395
3273.101349	0.085814	0.199728	1349.964844
3273.102261	0.085767	0.199728	1428.183960
3273.103201	0.085726	0.199728	1508.766724
3273.104124	0.085917	0.199728	1588.067871
3273.105018	0.085869	0.199728	1664.834839
3273.105972	0.085789	0.199728	1746.677124
3273.106911	0.085792	0.199728	1827.236084
3273.107802	0.085737	0.199728	1903.628052
3274.110455	1.131193	0.171220	541.841309
3274.111366	0.625825	0.171220	1111.968018
3274.112299	0.089037	0.171220	1195.039429
3274.113239	0.085770	0.171220	1275.663452
3274.114145	0.085818	0.171220	1353.414429
3274.115042	0.085836	0.171220	1430.409424
3274.115976	0.085833	0.171220	1510.577026
3274.116902	0.085880	0.171220	1590.102051
3274.117808	0.085873	0.171220	1667.902832
3274.118704	0.085818	0.171220	1744.795654
3274.119644	0.085836	0.171220	1825.481689
3274.120579	0.085796	0.171220	1905.700806
3275.171789	1.112878	0.200353	493.005157
3275.172711	0.646666	0.200353	1089.231445
3275.173678	0.087990	0.200353	1174.317261
3275.174589	0.085858	0.200353	1252.534058
3275.175490	0.085884	0.200353	1329.915405
3275.176420	0.085891	0.200353	1409.794189
3275.177321	0.085767	0.200353	1487.069946
3275.178223	0.085862	0.200353	1564.517334
3275.179113	0.085781	0.200353	1640.862671
3275.180042	0.085891	0.200353	1720.655518
3275.180937	0.085840	0.200353	1797.482178
3275.181834	0.085800	0.200353	1874.444336
3276.170477	1.140659	0.175619	524.703247
3276.171377	0.663197	0.175619	1121.580566
3276.172265	0.090037	0.175619	1201.533081
3276.173225	0.085840	0.175619	1283.939331
3276.174120	0.085789	0.175619	1360.720093
3276.175023	0.085785	0.175619	1438.183838
3276.175917	0.085833	0.175619	1514.918091
3276.176869	0.085865	0.175619	1596.661987
3276.177778	0.085756	0.175619	1674.613892
3276.178675	0.085770	0.175619	1751.549805
3276.179601	0.085847	0.175619	1831.044312
3276.180507	0.085734	0.175619	1908.718994
3277.244377	1.120525	0.196389	505.356781
3277.245290	0.664526	0.196389	1112.069336
3277.246176	0.090044	0.196389	1191.848267
3277.247130	0.085836	0.196389	1273.735962
3277.248030	0.085774	0.196389	1350.932495
3277.248917	0.085825	0.196389	1427.059448
3277.249844	0.085807	0.196389	1506.602417
3277.250753	0.085847	0.196389	1584.637451
3277.251661	0.085825	0.196389	1662.566772
3277.252550	0.085774	0.196389	1738.819824
3277.253492	0.085898	0.196389	1819.736206
3277.254407	0.085770	0.196389	1898.215942
3278.231000	1.127344	0.178471	505.050018
3278.231906	0.663713	0.178471	1106.374390
3278.232796	0.089945	0.178471	1186.425537
3278.233762	0.085800	0.178471	1269.307861
3278.234669	0.085778	0.178471	1347.108154
3278.235559	0.085785	0.178471	1423.456787
3278.236497	0.085902	0.178471	1504.032959
3278.237403	0.085814	0.178471	1581.780640
3278.238298	0.085730	0.178471	1658.509033
3278.239188	0.085796	0.178471	1734.867432
3278.240137	0.085818	0.178471	1816.308594
3278.241035	0.085745	0.178471	1893.307251
3279.313896	1.120345	0.189371	514.238586
3279.314798	0.660363	0.189371	1109.885620
3279.315692	0.089637	0.189371	1190.021484
3279.316626	0.085811	0.189371	1270.168579
3279.317563	0.085796	0.189371	1350.559326
3279.318474	0.085844	0.189371	1428.762695
3279.319365	0.085884	0.189371	1505.285156
3279.320311	0.085807	0.189371	1586.458496
3279.321229	0.085800	0.189371	1665.222534
3279.322148	0.085840	0.189371	1744.109375
3279.323035	0.085778	0.189371	1820.194092
3279.323975	0.085800	0.189371	1900.845703
3280.297439	1.126403	0.186241	510.260376
3280.298348	0.661457	0.186241	1111.525146
3280.299233	0.090018	0.186241	1191.191406
3280.300185	0.085873	0.186241	1272.942383
3280.301076	0.085829	0.186241	1349.415894
3280.301966	0.085778	0.186241	1425.757935
3280.302899	0.085807	0.186241	1505.815796
3280.303812	0.085774	0.186241	1584.127441
3280.304713	0.085836	0.186241	1661.465820
3280.305604	0.085829	0.186241	1737.939331
3280.306534	0.085865	0.186241	1817.794189
3280.307449	0.085803	0.186241	1896.304199
3281.377743	1.105441	0.184175	487.499298
3281.378641	0.697544	0.184175	1113.893677
3281.379525	0.090762	0.184175	1194.127075
3281.380490	0.085708	0.184175	1276.835327
3281.381393	0.085785	0.184175	1354.299072
3281.382281	0.085854	0.184175	1430.537842
3281.383217	0.085807	0.184175	1510.853027
3281.384132	0.085800	0.184175	1589.359619
3281.385052	0.085829	0.184175	1668.322144
3281.385939	0.085774	0.184175	1744.403564
3281.386877	0.085785	0.184175	1824.869873
3281.387784	0.085723	0.184175	1902.620361
3282.366465	1.131702	0.192924	559.060669
3282.367389	0.594503	0.192924	1108.381592
3282.368313	0.088114	0.192924	1189.798950
3282.369204	0.085789	0.192924	1266.236572
3282.370142	0.085891	0.192924	1346.802490
3282.371042	0.085811	0.192924	1424.031982
3282.371964	0.085796	0.192924	1503.135742
3282.372849	0.085814	0.192924	1579.081299
3282.373810	0.085774	0.192924	1661.510010
3282.374705	0.085781	0.192924	1738.284180
3282.375595	0.085807	0.192924	1814.652344
3282.376533	0.085858	0.192924	1895.187256
3283.439050	1.099343	0.180469	480.413025
3283.440007	0.663424	0.180469	1115.309814
3283.440920	0.088506	0.180469	1196.115723
3283.441827	0.085752	0.180469	1273.892700
3283.442721	0.085858	0.180469	1350.649902
3283.443657	0.085789	0.180469	1430.947998
3283.444574	0.085818	0.180469	1509.642944
3283.445493	0.085737	0.180469	1588.435547
3283.446380	0.085741	0.180469	1664.487793
3283.447329	0.085748	0.180469	1745.862915
3283.448255	0.085767	0.180469	1825.282837
3283.449147	0.085781	0.180469	1901.799683
3284.438986	1.095439	0.195607	476.516144
3284.439931	0.675110	0.195607	1114.494995
3284.440844	0.088638	0.195607	1195.421265
3284.441769	0.085811	0.195607	1274.796021
3284.442662	0.085759	0.195607	1351.379028
3284.443610	0.085704	0.195607	1432.626709
3284.444525	0.085865	0.195607	1511.193604
3284.445451	0.085781	0.195607	1590.627075
3284.446339	0.085715	0.195607	1666.742310
3284.447281	0.085767	0.195607	1747.534424
3284.448192	0.085759	0.195607	1825.661133
3284.449089	0.085800	0.195607	1902.623291
3285.499922	1.134218	0.182439	573.914062
3285.500826	0.588091	0.182439	1105.548096
3285.501743	0.088074	0.182439	1186.311768
3285.502637	0.085807	0.182439	1263.023071
3285.503580	0.085811	0.182439	1343.942383
3285.504486	0.085719	0.182439	1421.603760
3285.505403	0.085840	0.182439	1500.318848
3285.506291	0.085767	0.182439	1576.479614
3285.507242	0.085748	0.182439	1658.026245
3285.508162	0.085844	0.182439	1737.002319
3285.509081	0.085880	0.182439	1815.926147
3285.509970	0.085833	0.182439	1892.231201
3286.511065	1.107111	0.197070	491.557068
3286.511973	0.676454	0.197070	1105.777222
3286.512858	0.090220	0.197070	1185.621704
3286.513812	0.085686	0.197070	1267.366211
3286.514752	0.085723	0.197070	1347.945557
3286.515647	0.085778	0.197070	1424.716553
3286.516563	0.085778	0.197070	1503.288818
3286.517494	0.085811	0.197070	1583.178467
3286.518418	0.085712	0.197070	1662.376099
3286.519307	0.085822	0.197070	1738.671387
3286.520242	0.085774	0.197070	1818.869995
3286.521175	0.085833	0.197070	1898.951782
3287.562436	1.094498	0.187107	473.917755
3287.563362	0.695438	0.187107	1117.893555
3287.564294	0.088755	0.187107	1200.613159
3287.565230	0.085807	0.187107	1280.928467
3287.566117	0.085829	0.187107	1357.058716
3287.567039	0.085876	0.187107	1436.236816
3287.567977	0.085865	0.187107	1516.778687
3287.568898	0.085884	0.187107	1595.877686
3287.569785	0.085880	0.187107	1672.053345
3287.570717	0.085822	0.187107	1752.039062
3287.571661	0.085876	0.187107	1833.106445
3287.572559	0.085895	0.187107	1910.239990
3288.582094	1.101167	0.195297	480.108795
3288.582991	0.692406	0.195297	1101.197021
3288.583952	0.088964	0.195297	1186.691040
3288.584877	0.085752	0.195297	1266.011597
3288.585795	0.085836	0.195297	1344.809204
3288.586681	0.085807	0.195297	1420.834106
3288.587636	0.085829	0.195297	1502.800659
3288.588566	0.085851	0.195297	1582.641968
3288.589468	0.085939	0.195297	1660.158691
3288.590393	0.085822	0.195297	1739.543579
3288.591319	0.085811	0.195297	1819.004150
3288.592233	0.085887	0.195297	1897.505249
3289.626569	1.117782	0.191353	491.824066
3289.627562	0.545303	0.191353	1033.309692
3289.628499	0.087422	0.191353	1115.223999
3289.629403	0.085792	0.191353	1192.780151
3289.630320	0.085767	0.191353	1271.428101
3289.631257	0.085825	0.191353	1351.846313
3289.632176	0.085803	0.191353	1430.699463
3289.633064	0.085811	0.191353	1506.899170
3289.634010	0.085796	0.191353	1588.062134
3289.634940	0.085800	0.191353	1667.855713
3289.635856	0.085811	0.191353	1746.458130
3289.636756	0.085811	0.191353	1823.687622
3290.651632	1.123151	0.193887	527.880798
3290.652546	0.631882	0.193887	1105.421143
3290.653470	0.089238	0.193887	1187.877319
3290.654399	0.085745	0.193887	1267.534058
3290.655331	0.085781	0.193887	1347.482178
3290.656229	0.085789	0.193887	1424.520264
3290.657150	0.085818	0.193887	1503.558472
3290.658086	0.085752	0.193887	1583.822266
3290.658996	0.085851	0.193887	1661.946533
3290.659883	0.085778	0.193887	1738.031250
3290.660832	0.085946	0.193887	1819.593994
3290.661764	0.085800	0.193887	1899.559204
3291.691488	1.117299	0.194097	512.840088
3291.692430	0.607328	0.194097	1084.942871
3291.693320	0.088876	0.194097	1164.042236
3291.694264	0.085785	0.194097	1245.023193
3291.695200	0.085833	0.194097	1325.362427
3291.696104	0.085884	0.194097	1403.001343
3291.697010	0.085840	0.194097	1480.772217
3291.697938	0.085767	0.194097	1560.363647
3291.698866	0.085814	0.194097	1639.999268
3291.699763	0.085825	0.194097	1716.984497
3291.700680	0.085833	0.194097	1795.692871
3291.701618	0.085865	0.194097	1876.234741
3292.719839	1.121444	0.192433	505.771301
3292.720736	0.674663	0.192433	1110.944092
3292.721690	0.088777	0.192433	1195.637207
3292.722597	0.085778	0.192433	1273.437500
3292.723489	0.085854	0.192433	1350.019653
3292.724414	0.085887	0.192433	1429.465576
3292.725326	0.085847	0.192433	1507.758179
3292.726233	0.085818	0.192433	1585.594971
3292.727135	0.085844	0.192433	1663.025757
3292.728071	0.085844	0.192433	1743.375244
3292.728977	0.085851	0.192433	1821.156128
3292.729883	0.085822	0.192433	1898.910400
3293.756870	1.098171	0.194927	476.606354
3293.757828	0.636760	0.194927	1086.622681
3293.758741	0.088436	0.194927	1167.364990
3293.759644	0.085741	0.194927	1244.789062
3293.760534	0.085891	0.194927	1321.232178
3293.761492	0.085924	0.194927	1403.547485
3293.762385	0.085844	0.194927	1480.205688
3293.763281	0.085822	0.194927	1557.101807
3293.764181	0.085774	0.194927	1634.298340
3293.765114	0.085979	0.194927	1714.516724
3293.766013	0.085734	0.194927	1791.591309
3293.766908	0.085785	0.194927	1868.368774
3294.787018	1.102075	0.189851	480.504730
3294.787948	0.686646	0.189851	1119.085083
3294.788856	0.089323	0.189851	1200.189941
3294.789759	0.085811	0.189851	1277.676880
3294.790648	0.085833	0.189851	1353.981934
3294.791587	0.085876	0.189851	1434.619873
3294.792485	0.085785	0.189851	1511.654785
3294.793392	0.085862	0.189851	1589.531494
3294.794281	0.085818	0.189851	1665.823608
3294.795223	0.085865	0.189851	1746.708862
3294.796120	0.085778	0.189851	1823.651367
3294.797015	0.085811	0.189851	1900.451782
3295.823316	1.107777	0.193202	492.960815
3295.824215	0.689799	0.193202	1113.089722
3295.825164	0.090062	0.193202	1198.558838
3295.826064	0.085770	0.193202	1275.752075
3295.826977	0.085869	0.193202	1354.150635
3295.827874	0.085789	0.193202	1431.103027
3295.828804	0.085836	0.193202	1510.930664
3295.829711	0.085822	0.193202	1588.770752
3295.830629	0.085796	0.193202	1667.531372
3295.831526	0.085807	0.193202	1744.500122
3295.832472	0.085785	0.193202	1825.652588
3295.833370	0.085763	0.193202	1902.667725
3296.853720	1.115094	0.188147	500.677185
3296.854616	0.687455	0.188147	1116.636719
3296.855564	0.089755	0.188147	1201.724121
3296.856457	0.085800	0.188147	1278.343140
3296.857363	0.085876	0.188147	1356.147217
3296.858263	0.085840	0.188147	1433.403076
3296.859188	0.085803	0.188147	1512.770996
3296.860108	0.085844	0.188147	1591.747070
3296.861003	0.085851	0.188147	1668.583618
3296.861921	0.085829	0.188147	1747.374512
3296.862856	0.085811	0.188147	1827.607422
3296.863777	0.085825	0.188147	1906.652466
3297.890766	1.104844	0.190918	487.236084
3297.891659	0.702740	0.190918	1114.783325
3297.892587	0.089491	0.190918	1197.830933
3297.893533	0.085811	0.190918	1279.007690
3297.894447	0.085953	0.190918	1357.569092
3297.895333	0.085829	0.190918	1433.613525
3297.896268	0.085811	0.190918	1513.846436
3297.897202	0.085811	0.190918	1593.993530
3297.898121	0.085792	0.190918	1672.836548
3297.899007	0.085833	0.190918	1748.884155
3297.899938	0.085869	0.190918	1828.828369
3297.900878	0.085796	0.190918	1909.476562
3298.919384	1.130226	0.187051	507.471436
3298.920325	0.604109	0.187051	1075.937866
3298.921246	0.088374	0.187051	1157.330322
3298.922139	0.085840	0.187051	1233.985352
3298.923097	0.085814	0.187051	1316.195312
3298.924032	0.085803	0.187051	1396.421387
3298.924930	0.085836	0.187051	1473.502319
3298.925845	0.085800	0.187051	1552.008911
3298.926781	0.085778	0.187051	1632.296753
3298.927707	0.085847	0.187051	1711.791260
3298.928609	0.085876	0.187051	1789.251831
3298.929526	0.085759	0.187051	1867.893066
3299.958726	1.098856	0.188683	475.804749
3299.959665	0.642092	0.188683	1078.729492
3299.960613	0.088363	0.188683	1162.497681
3299.961523	0.085781	0.188683	1240.558594
3299.962412	0.085770	0.188683	1316.808350
3299.963353	0.085770	0.188683	1397.518188
3299.964290	0.085818	0.188683	1477.929565
3299.965189	0.085741	0.188683	1555.010742
3299.966113	0.085792	0.188683	1634.282715
3299.967047	0.085818	0.188683	1714.436646
3299.967981	0.085814	0.188683	1794.587158
3299.968883	0.085818	0.188683	1871.994873
3300.984289	1.114757	0.186173	500.525909
3300.985196	0.666127	0.186173	1104.702881
3300.986087	0.089927	0.186173	1184.827637
3300.987052	0.085774	0.186173	1267.599487
3300.987983	0.085844	0.186173	1347.519775
3300.988882	0.085847	0.186173	1424.696411
3300.989803	0.085803	0.186173	1503.721191
3300.990738	0.085800	0.186173	1583.943726
3300.991656	0.085792	0.186173	1662.701050
3300.992544	0.085854	0.186173	1738.939819
3300.993470	0.085818	0.186173	1818.407227
3300.994407	0.085811	0.186173	1898.811768
3302.028751	1.099574	0.184312	484.912109
3302.029646	0.704597	0.184312	1115.526611
3302.030606	0.088890	0.184312	1200.861328
3302.031516	0.085789	0.184312	1278.928955
3302.032421	0.085778	0.184312	1356.557617
3302.033308	0.085851	0.184312	1432.707275
3302.034245	0.085844	0.184312	1513.142578
3302.035151	0.085807	0.184312	1590.883667
3302.036038	0.085818	0.184312	1667.004150
3302.036962	0.085840	0.184312	1746.320190
3302.037867	0.085840	0.184312	1824.005249
3302.038771	0.085814	0.184312	1901.581299
3303.047406	1.152960	0.187692	533.820557
3303.048340	0.594478	0.187692	1089.062500
3303.049236	0.088634	0.187692	1168.478638
3303.050173	0.085847	0.187692	1248.917480
3303.051078	0.085887	0.187692	1326.645630
3303.051982	0.085829	0.187692	1404.234863
3303.052871	0.085887	0.187692	1480.588867
3303.053829	0.085880	0.187692	1562.862061
3303.054724	0.085840	0.187692	1639.688721
3303.055621	0.085847	0.187692	1716.693604
3303.056509	0.085840	0.187692	1792.919434
3303.057437	0.085942	0.187692	1872.673950
3304.099273	1.099486	0.182576	478.276398
3304.100238	0.614806	0.182576	1071.564087
3304.101143	0.088729	0.182576	1151.864014
3304.102037	0.085822	0.182576	1228.588501
3304.102924	0.085756	0.182576	1304.653687
3304.103854	0.085822	0.182576	1384.467773
3304.104761	0.085800	0.182576	1462.287964
3304.105659	0.085807	0.182576	1539.342529
3304.106578	0.085767	0.182576	1618.161987
3304.107494	0.085935	0.182576	1696.878540
3304.108403	0.085803	0.182576	1774.873657
3304.109295	0.085785	0.182576	1851.393799
3305.108937	1.108092	0.191269	486.452423
3305.109922	0.572824	0.191269	1050.683594
3305.110842	0.087762	0.191269	1131.425049
3305.111733	0.085833	0.191269	1207.901855
3305.112655	0.085767	0.191269	1286.978638
3305.113592	0.085712	0.191269	1367.290527
3305.114523	0.085774	0.191269	1447.145996
3305.115416	0.085770	0.191269	1523.738892
3305.116348	0.085807	0.191269	1603.710937
3305.117252	0.085895	0.191269	1681.359863
3305.118156	0.085796	0.191269	1758.919312
3305.119059	0.085814	0.191269	1836.409546
3306.170830	1.110260	0.180312	489.624664
3306.171731	0.694307	0.180312	1115.194946
3306.172619	0.090564	0.180312	1195.615723
3306.173588	0.085829	0.180312	1278.783936
3306.174483	0.085833	0.180312	1355.604004
3306.175382	0.085913	0.180312	1432.839844
3306.176292	0.085785	0.180312	1510.904053
3306.177214	0.085968	0.180312	1590.166504
3306.178117	0.085792	0.180312	1667.636841
3306.179019	0.085833	0.180312	1745.057739
3306.179952	0.085822	0.180312	1825.129272
3306.180856	0.085854	0.180312	1902.741699
3307.169230	1.105397	0.195607	485.269165
3307.170180	0.619618	0.195607	1073.906250
3307.171096	0.088755	0.195607	1155.205688
3307.171996	0.085833	0.195607	1232.454956
3307.172912	0.085865	0.195607	1311.107788
3307.173835	0.085898	0.195607	1390.392090
3307.174741	0.085781	0.195607	1468.109863
3307.175632	0.085807	0.195607	1544.563843
3307.176562	0.085792	0.195607	1624.350586
3307.177469	0.085851	0.195607	1702.217285
3307.178364	0.085763	0.195607	1778.975098
3307.179255	0.085752	0.195607	1855.380127
3308.242373	1.096560	0.180102	475.907104
3308.243358	0.586029	0.180102	1053.145752
3308.244261	0.088407	0.180102	1132.977295
3308.245157	0.085807	0.180102	1209.860229
3308.246053	0.085800	0.180102	1286.736572
3308.247003	0.085792	0.180102	1368.239258
3308.247913	0.085759	0.180102	1446.280151
3308.248810	0.085803	0.180102	1523.245605
3308.249736	0.085818	0.180102	1602.713013
3308.250649	0.085770	0.180102	1681.021240
3308.251550	0.085800	0.180102	1758.326660
3308.252436	0.085770	0.180102	1834.319092
3309.230286	1.108854	0.196312	489.004486
3309.231222	0.640814	0.196312	1088.806519
3309.232124	0.089161	0.196312	1169.230103
3309.233056	0.085844	0.196312	1249.236206
3309.233962	0.085876	0.196312	1327.040283
3309.234866	0.085833	0.196312	1404.632812
3309.235757	0.085814	0.196312	1481.093262
3309.236699	0.085939	0.196312	1562.047485
3309.237606	0.085865	0.196312	1639.927490
3309.238498	0.085840	0.196312	1716.496582
3309.239419	0.085876	0.196312	1795.588867
3309.240331	0.085939	0.196312	1873.964966
3310.312956	1.168118	0.183740	571.209534
3310.313888	0.564203	0.183740	1097.046631
3310.314789	0.088151	0.183740	1176.470337
3310.315677	0.085748	0.183740	1252.614868
3310.316624	0.085836	0.183740	1333.901733
3310.317527	0.085792	0.183740	1411.372070
3310.318419	0.085833	0.183740	1487.934692
3310.319350	0.085811	0.183740	1567.824341
3310.320252	0.085942	0.183740	1645.344360
3310.321160	0.085800	0.183740	1723.250366
3310.322056	0.085759	0.183740	1800.090698
3310.322988	0.085833	0.183740	1880.086548
3311.293899	1.104705	0.191466	483.860626
3311.294813	0.686177	0.191466	1111.026123
3311.295699	0.090571	0.191466	1191.272339
3311.296658	0.085898	0.191466	1273.648926
3311.297570	0.085807	0.191466	1351.904785
3311.298458	0.085818	0.191466	1428.111084
3311.299381	0.085803	0.191466	1507.307495
3311.300288	0.085906	0.191466	1585.223999
3311.301191	0.085814	0.191466	1662.714233
3311.302081	0.085774	0.191466	1739.052979
3311.303016	0.085814	0.191466	1819.289307
3311.303922	0.085851	0.191466	1897.070190
3312.380180	1.170872	0.191361	599.486267
3312.381096	0.564192	0.191361	1116.286011
3312.382012	0.087825	0.191361	1196.733398
3312.382905	0.085825	0.191361	1273.375244
3312.383837	0.085770	0.191361	1353.313110
3312.384755	0.085811	0.191361	1432.087158
3312.385651	0.085844	0.191361	1509.002930
3312.386562	0.085811	0.191361	1587.176270
3312.387485	0.085796	0.191361	1666.365845
3312.388380	0.085745	0.191361	1743.107300
3312.389270	0.085869	0.191361	1819.530884
3312.390197	0.085895	0.191361	1899.155396
3313.361110	1.109359	0.184026	495.883545
3313.362006	0.690802	0.184026	1114.842163
3313.362936	0.090333	0.184026	1198.852051
3313.363843	0.085847	0.184026	1276.715454
3313.364741	0.085873	0.184026	1353.829224
3313.365630	0.085865	0.184026	1430.163574
3313.366586	0.085950	0.184026	1512.331543
3313.367492	0.085800	0.184026	1590.065918
3313.368387	0.085756	0.184026	1666.817139
3313.369282	0.085913	0.184026	1743.709351
3313.370229	0.085902	0.184026	1825.058594
3313.371140	0.085807	0.184026	1903.228638
3314.443987	1.113739	0.199333	496.727600
3314.444895	0.677501	0.199333	1111.898682
3314.445787	0.090121	0.199333	1192.286499
3314.446730	0.085781	0.199333	1273.178223
3314.447636	0.085833	0.199333	1350.942505
3314.448559	0.085767	0.199333	1430.105103
3314.449449	0.085814	0.199333	1506.479736
3314.450401	0.085807	0.199333	1588.167847
3314.451299	0.085796	0.199333	1665.212524
3314.452188	0.085865	0.199333	1741.546875
3314.453118	0.085840	0.199333	1821.377930
3314.454040	0.085781	0.199333	1900.468262
3315.431369	1.098849	0.177532	479.098145
3315.432265	0.694570	0.177532	1101.433105
3315.433217	0.088923	0.177532	1186.088135
3315.434120	0.085756	0.177532	1263.525513
3315.435009	0.085873	0.177532	1339.866455
3315.435945	0.085898	0.177532	1420.267334
3315.436852	0.085840	0.177532	1498.124023
3315.437771	0.085800	0.177532	1576.973877
3315.438669	0.085814	0.177532	1654.035034
3315.439620	0.085884	0.177532	1735.710571
3315.440530	0.085822	0.177532	1813.808105
3315.441421	0.085774	0.177532	1890.232666
3316.506330	1.115614	0.203761	493.101349
3316.507237	0.681409	0.203761	1111.139038
3316.508156	0.089323	0.203761	1193.226440
3316.509066	0.085814	0.203761	1271.317383
3316.510013	0.085869	0.203761	1352.635498
3316.510927	0.085803	0.203761	1431.059692
3316.511819	0.085807	0.203761	1507.599487
3316.512748	0.085814	0.203761	1587.320923
3316.513661	0.085800	0.203761	1665.655884
3316.514562	0.085763	0.203761	1742.928223
3316.515451	0.085825	0.203761	1819.226807
3316.516386	0.085833	0.203761	1899.480225
3317.504460	1.098343	0.172549	479.976105
3317.505356	0.702209	0.172549	1109.155762
3317.506295	0.089304	0.172549	1193.012451
3317.507203	0.085730	0.172549	1270.855225
3317.508094	0.085829	0.172549	1347.328735
3317.509019	0.085800	0.172549	1426.693359
3317.509931	0.085880	0.172549	1505.015991
3317.510829	0.085693	0.172549	1581.968628
3317.511720	0.085745	0.172549	1658.367065
3317.512655	0.085803	0.172549	1738.593018
3317.513564	0.085745	0.172549	1816.534912
3317.514463	0.085789	0.172549	1893.658813
3318.567129	1.110022	0.205658	496.179810
3318.568035	0.672568	0.205658	1105.526733
3318.568970	0.090070	0.205658	1189.741821
3318.569881	0.085840	0.205658	1267.941895
3318.570789	0.085745	0.205658	1345.797974
3318.571679	0.085829	0.205658	1422.185669
3318.572645	0.085833	0.205658	1505.099854
3318.573558	0.085752	0.205658	1583.391357
3318.574453	0.085796	0.205658	1660.178711
3318.575343	0.085789	0.205658	1736.530518
3318.576266	0.085818	0.205658	1815.740479
3318.577174	0.085778	0.205658	1893.626465
3319.577806	1.103895	0.171876	485.713928
3319.578724	0.677637	0.171876	1107.784424
3319.579667	0.088718	0.171876	1191.445801
3319.580559	0.085726	0.171876	1267.913696
3319.581456	0.085807	0.171876	1344.882446
3319.582389	0.085800	0.171876	1424.933472
3319.583300	0.085730	0.171876	1503.033447
3319.584203	0.085701	0.171876	1580.421143
3319.585091	0.085748	0.171876	1656.565674
3319.586035	0.085829	0.171876	1737.588135
3319.586926	0.085748	0.171876	1813.989868
3319.587820	0.085818	0.171876	1890.711060
3320.627919	1.106433	0.206520	491.256317
3320.628812	0.688715	0.206520	1106.278442
3320.629780	0.088594	0.206520	1192.037231
3320.630680	0.085796	0.206520	1269.253540
3320.631575	0.085858	0.206520	1346.096558
3320.632501	0.085880	0.206520	1425.621582
3320.633407	0.085836	0.206520	1503.389160
3320.634298	0.085770	0.206520	1579.810425
3320.635186	0.085880	0.206520	1656.072021
3320.636115	0.085858	0.206520	1735.834229
3320.637027	0.085789	0.206520	1814.073364
3320.637950	0.085778	0.206520	1893.246094
3321.650387	1.112010	0.174293	493.732666
3321.651291	0.682698	0.174293	1110.891357
3321.652180	0.090352	0.174293	1191.213867
3321.653150	0.085781	0.174293	1274.421631
3321.654052	0.085800	0.174293	1351.812866
3321.654943	0.085844	0.174293	1428.299438
3321.655890	0.085851	0.174293	1509.600220
3321.656791	0.085792	0.174293	1586.899048
3321.657697	0.085741	0.174293	1664.580322
3321.658592	0.085767	0.174293	1741.341431
3321.659531	0.085811	0.174293	1821.917480
3321.660444	0.085822	0.174293	1900.272583
3322.689503	1.123246	0.205678	502.090881
3322.690413	0.676161	0.205678	1117.397217
3322.691303	0.090007	0.205678	1197.503784
3322.692227	0.085704	0.205678	1276.694580
3322.693147	0.085778	0.205678	1355.609985
3322.694048	0.085854	0.205678	1432.964844
3322.694938	0.085715	0.205678	1509.251465
3322.695864	0.085748	0.205678	1588.654419
3322.696769	0.085800	0.205678	1666.302979
3322.697688	0.085781	0.205678	1745.135986
3322.698577	0.085844	0.205678	1821.450806
3322.699519	0.085807	0.205678	1902.280884
3323.719907	1.113387	0.178076	502.137756
3323.720814	0.674755	0.178076	1114.140259
3323.721707	0.089963	0.178076	1194.477539
3323.722630	0.085759	0.178076	1273.633301
3323.723543	0.085748	0.178076	1351.921509
3323.724460	0.085833	0.178076	1430.629883
3323.725353	0.085811	0.178076	1507.258667
3323.726311	0.085811	0.178076	1589.465210
3323.727209	0.085778	0.178076	1666.493530
3323.728131	0.085818	0.178076	1745.617554
3323.729018	0.085836	0.178076	1821.754272
3323.729980	0.085811	0.178076	1904.303955
3324.753122	1.111209	0.205867	498.932648
3324.754036	0.659205	0.205867	1101.446289
3324.754925	0.089714	0.205867	1181.202393
3324.755847	0.085741	0.205867	1260.255615
3324.756774	0.085781	0.205867	1339.774902
3324.757698	0.085697	0.205867	1418.958984
3324.758589	0.085818	0.205867	1495.422729
3324.759534	0.085811	0.205867	1576.513672
3324.760451	0.085807	0.205867	1655.198608
3324.761378	0.085822	0.205867	1734.755127
3324.762265	0.085807	0.205867	1810.865845
3324.763210	0.085814	0.205867	1891.960327
3325.787631	1.146083	0.183309	542.097168
3325.788535	0.632391	0.183309	1113.778931
3325.789483	0.088491	0.183309	1197.668579
3325.790392	0.085752	0.183309	1275.617065
3325.791311	0.085712	0.183309	1354.386108
3325.792199	0.085759	0.183309	1430.540283
3325.793152	0.085745	0.183309	1512.254883
3325.794076	0.085792	0.183309	1591.526855
3325.794968	0.085796	0.183309	1668.056763
3325.795911	0.085701	0.183309	1748.872559
3325.796827	0.085767	0.183309	1827.434814
3325.797757	0.085730	0.183309	1907.163696
3326.818763	1.114512	0.204079	489.270660
3326.819743	0.569546	0.204079	1047.425659
3326.820677	0.087634	0.204079	1129.276123
3326.821568	0.085836	0.204079	1205.756104
3326.822505	0.085858	0.204079	1286.205200
3326.823415	0.085737	0.204079	1364.226196
3326.824333	0.085752	0.204079	1442.946533
3326.825224	0.085759	0.204079	1519.358032
3326.826176	0.085778	0.204079	1601.018311
3326.827079	0.085737	0.204079	1678.439087
3326.828002	0.085829	0.204079	1757.659180
3326.828900	0.085807	0.204079	1834.713745
3327.854045	1.122583	0.189182	506.284943
3327.854942	0.664662	0.189182	1102.486572
3327.855904	0.088781	0.189182	1187.893433
3327.856800	0.085781	0.189182	1264.753418
3327.857711	0.085811	0.189182	1342.926758
3327.858607	0.085770	0.189182	1419.776855
3327.859542	0.085796	0.189182	1499.995972
3327.860465	0.085825	0.189182	1579.212646
3327.861359	0.085829	0.189182	1655.943604
3327.862286	0.085854	0.189182	1735.530762
3327.863206	0.085785	0.189182	1814.452881
3327.864133	0.085822	0.189182	1894.009399
3328.885984	1.118005	0.202814	499.748413
3328.886889	0.678497	0.202814	1113.788452
3328.887778	0.090055	0.202814	1193.847290
3328.888699	0.085682	0.202814	1272.760742
3328.889630	0.085778	0.202814	1352.619629
3328.890554	0.085723	0.202814	1431.827393
3328.891445	0.085737	0.202814	1508.219360
3328.892390	0.085756	0.202814	1589.258423
3328.893291	0.085767	0.202814	1666.534180
3328.894209	0.085770	0.202814	1745.271240
3328.895107	0.085869	0.202814	1822.381714
3328.896051	0.085785	0.202814	1903.362671
3329.919202	1.130105	0.191873	511.937531
3329.920115	0.655624	0.191873	1110.522095
3329.921001	0.089780	0.191873	1190.067383
3329.921927	0.085756	0.191873	1269.477051
3329.922864	0.085730	0.191873	1349.806030
3329.923772	0.085807	0.191873	1427.718628
3329.924669	0.085825	0.191873	1504.703857
3329.925613	0.085759	0.191873	1585.660645
3329.926516	0.085789	0.191873	1663.127686
3329.927433	0.085836	0.191873	1741.839478
3329.928318	0.085836	0.191873	1817.804443
3329.929259	0.085796	0.191873	1898.538330
3330.953924	1.094304	0.200357	473.833710
3330.954862	0.677688	0.200357	1109.505005
3330.955776	0.089004	0.200357	1190.854614
3330.956700	0.085726	0.200357	1270.065674
3330.957587	0.085756	0.200357	1346.130859
3330.958529	0.085865	0.200357	1427.016113
3330.959429	0.085748	0.200357	1504.189575
3330.960350	0.085814	0.200357	1583.224487
3330.961238	0.085770	0.200357	1659.388428
3330.962188	0.085734	0.200357	1740.835449
3330.963090	0.085785	0.200357	1818.213379
3330.964005	0.085807	0.200357	1896.726685
3331.985631	1.126300	0.192320	503.456146
3331.986554	0.652159	0.192320	1105.399292
3331.987451	0.089260	0.192320	1185.465698
3331.988372	0.085730	0.192320	1264.422974
3331.989307	0.085730	0.192320	1344.580566
3331.990233	0.085792	0.192320	1424.024170
3331.991123	0.085825	0.192320	1500.408569
3331.992063	0.085719	0.192320	1580.984375
3331.992982	0.085774	0.192320	1659.810669
3331.993901	0.085803	0.192320	1738.663818
3331.994788	0.085800	0.192320	1814.768066
3331.995740	0.085734	0.192320	1896.386475
3333.021673	1.123923	0.198044	524.872192
3333.022620	0.580620	0.198044	1074.719482
3333.023537	0.088107	0.198044	1155.513306
3333.024427	0.085891	0.198044	1231.956421
3333.025373	0.085759	0.198044	1313.084717
3333.026287	0.085800	0.198044	1391.505493
3333.027203	0.085887	0.198044	1470.178345
3333.028102	0.085759	0.198044	1547.275879
3333.029053	0.085807	0.198044	1628.878174
3333.029975	0.085803	0.198044	1707.988770
3333.030872	0.085796	0.198044	1784.947754
3333.031798	0.085862	0.198044	1864.455811
3334.051854	1.160742	0.191313	582.692566
3334.052763	0.582916	0.191313	1112.563477
3334.053680	0.088074	0.191313	1193.327148
3334.054572	0.085708	0.191313	1269.778687
3334.055518	0.085796	0.191313	1350.941650
3334.056442	0.085869	0.191313	1430.284790
3334.057338	0.085800	0.191313	1507.161133
3334.058255	0.085814	0.191313	1585.852783
3334.059191	0.085854	0.191313	1666.212646
3334.060107	0.085778	0.191313	1744.784912
3334.060993	0.085829	0.191313	1820.829346
3334.061932	0.085715	0.191313	1901.316040
3335.088627	1.125747	0.194532	535.855591
3335.089573	0.587637	0.194532	1091.759888
3335.090501	0.088011	0.194532	1173.434570
3335.091389	0.085796	0.194532	1249.621338
3335.092329	0.085759	0.194532	1330.235107
3335.093265	0.085752	0.194532	1410.498901
3335.094172	0.085829	0.194532	1488.345703
3335.095080	0.085668	0.194532	1566.131958
3335.096011	0.085741	0.194532	1645.956787
3335.096946	0.085785	0.194532	1726.165649
3335.097847	0.085800	0.194532	1803.471069
3335.098771	0.085796	0.194532	1882.746460
3336.118502	1.136418	0.189480	522.752502
3336.119417	0.631392	0.189480	1100.475830
3336.120346	0.088400	0.189480	1182.599121
3336.121233	0.085741	0.189480	1258.651367
3336.122178	0.085719	0.189480	1339.655762
3336.123103	0.085840	0.189480	1419.057617
3336.123990	0.085770	0.189480	1495.135864
3336.124931	0.085781	0.189480	1575.856079
3336.125828	0.085822	0.189480	1652.838013
3336.126746	0.085825	0.189480	1731.625488
3336.127646	0.085825	0.189480	1808.868164
3336.128581	0.085858	0.189480	1889.145508
3337.154507	1.115178	0.194878	489.563232
3337.155481	0.594650	0.194878	1068.751953
3337.156407	0.088041	0.194878	1150.277710
3337.157295	0.085818	0.194878	1226.484009
3337.158235	0.085774	0.194878	1307.111450
3337.159147	0.085807	0.194878	1385.367310
3337.160069	0.085770	0.194878	1464.447510
3337.160964	0.085763	0.194878	1541.205322
3337.161916	0.085756	0.194878	1622.844727
3337.162835	0.085752	0.194878	1701.650757
3337.163725	0.085800	0.194878	1778.012329
3337.164645	0.085778	0.194878	1856.927734
3338.184954	1.158721	0.186668	555.027222
3338.185862	0.613173	0.186668	1111.787964
3338.186787	0.088389	0.186668	1193.547485
3338.187685	0.085756	0.186668	1270.556030
3338.188643	0.085811	0.186668	1352.762573
3338.189562	0.085774	0.186668	1431.588867
3338.190460	0.085829	0.186668	1508.663208
3338.191398	0.085865	0.186668	1589.205078
3338.192313	0.085778	0.186668	1667.691528
3338.193231	0.085895	0.186668	1746.542969
3338.194120	0.085884	0.186668	1822.893677
3338.195069	0.085847	0.186668	1904.362671
3339.218917	1.117167	0.194858	523.951233
3339.219830	0.633175	0.194858	1102.040039
3339.220720	0.089355	0.194858	1181.566406
3339.221678	0.085829	0.194858	1263.790405
3339.222600	0.085803	0.194858	1342.901001
3339.223490	0.085844	0.194858	1419.301758
3339.224401	0.085785	0.194858	1497.451782
3339.225336	0.085789	0.194858	1577.664062
3339.226255	0.085803	0.194858	1656.517212
3339.227151	0.085829	0.194858	1733.419922
3339.228085	0.085693	0.194858	1813.457520
3339.229020	0.085865	0.194858	1893.741699
3340.251619	1.115065	0.184006	504.009277
3340.252533	0.649666	0.184006	1097.803589
3340.253452	0.088916	0.184006	1179.517456
3340.254351	0.085770	0.184006	1256.624878
3340.255301	0.085785	0.184006	1338.120605
3340.256235	0.085807	0.184006	1418.264282
3340.257132	0.085876	0.184006	1495.295410
3340.258049	0.085796	0.184006	1573.970215
3340.258979	0.085785	0.184006	1653.750244
3340.259910	0.085865	0.184006	1733.691040
3340.260800	0.085759	0.184006	1810.016846
3340.261719	0.085803	0.184006	1888.869995
3341.284819	1.099237	0.196042	486.962036
3341.285740	0.678127	0.196042	1111.517456
3341.286635	0.089952	0.196042	1192.024902
3341.287574	0.085792	0.196042	1272.583862
3341.288491	0.085822	0.196042	1351.282227
3341.289411	0.085847	0.196042	1430.261597
3341.290296	0.085789	0.196042	1506.184448
3341.291234	0.085759	0.196042	1586.626709
3341.292152	0.085825	0.196042	1665.414185
3341.293076	0.085778	0.196042	1744.672729
3341.293965	0.085847	0.196042	1820.990845
3341.294914	0.085759	0.196042	1902.376343
3342.318808	1.125377	0.181859	510.921234
3342.319740	0.624397	0.181859	1092.859253
3342.320638	0.088967	0.181859	1172.751831
3342.321608	0.085778	0.181859	1255.956055
3342.322520	0.085756	0.181859	1334.165161
3342.323413	0.085803	0.181859	1410.787476
3342.324350	0.085756	0.181859	1491.140503
3342.325268	0.085854	0.181859	1569.954956
3342.326186	0.085785	0.181859	1648.705566
3342.327075	0.085792	0.181859	1724.974854
3342.328036	0.085836	0.181859	1807.463379
3342.328959	0.085785	0.181859	1886.642822
3343.350810	1.158201	0.199398	603.422607
3343.351736	0.542937	0.199398	1106.182373
3343.352659	0.087583	0.199398	1187.021484
3343.353549	0.085785	0.199398	1263.370117
3343.354505	0.085928	0.199398	1345.517090
3343.355412	0.085869	0.199398	1423.400391
3343.356330	0.085873	0.199398	1502.231689
3343.357231	0.085803	0.199398	1579.540405
3343.358179	0.085781	0.199398	1660.861084
3343.359095	0.085876	0.199398	1739.523926
3343.359991	0.085836	0.199398	1816.433105
3343.360926	0.085796	0.199398	1896.652222
3344.384228	1.129991	0.179724	513.016113
3344.385136	0.655448	0.179724	1108.162842
3344.386028	0.089821	0.179724	1188.282715
3344.386986	0.085840	0.179724	1270.517334
3344.387899	0.085898	0.179724	1348.942627
3344.388804	0.085917	0.179724	1426.697266
3344.389704	0.085891	0.179724	1503.999268
3344.390645	0.085979	0.179724	1584.905518
3344.391552	0.085796	0.179724	1662.722412
3344.392443	0.085851	0.179724	1739.215454
3344.393353	0.085774	0.179724	1817.269775
3344.394302	0.085811	0.179724	1898.703979
3345.418963	1.106012	0.203398	488.857300
3345.419856	0.687041	0.203398	1102.384888
3345.420831	0.088510	0.203398	1188.681641
3345.421733	0.085858	0.203398	1266.125732
3345.422624	0.085836	0.203398	1342.605713
3345.423580	0.085781	0.203398	1424.612549
3345.424485	0.085796	0.203398	1502.257812
3345.425406	0.085825	0.203398	1581.302856
3345.426295	0.085836	0.203398	1657.611206
3345.427231	0.085928	0.203398	1738.039551
3345.428137	0.085833	0.203398	1815.803833
3345.429027	0.085811	0.203398	1892.175171
3346.448843	1.099717	0.179018	483.875397
3346.449737	0.690472	0.179018	1101.157715
3346.450688	0.089022	0.179018	1185.817871
3346.451599	0.085726	0.179018	1263.914551
3346.452488	0.085906	0.179018	1340.284790
3346.453429	0.085803	0.179018	1421.025635
3346.454340	0.085800	0.179018	1499.189087
3346.455259	0.085884	0.179018	1578.116333
3346.456146	0.085803	0.179018	1654.223755
3346.457100	0.085906	0.179018	1736.177856
3346.458001	0.085774	0.179018	1813.460205
3346.458889	0.085862	0.179018	1889.705444
3347.488737	1.137858	0.205811	523.414551
3347.489633	0.668218	0.205811	1122.137695
3347.490605	0.088846	0.205811	1208.496460
3347.491510	0.085712	0.205811	1286.065552
3347.492436	0.085792	0.205811	1365.509155
3347.493325	0.085759	0.205811	1441.749146
3347.494267	0.085818	0.205811	1522.589600
3347.495191	0.085807	0.205811	1601.875122
3347.496088	0.085865	0.205811	1678.896484
3347.497018	0.085851	0.205811	1758.737793
3347.497926	0.085844	0.205811	1836.683716
3347.498850	0.085800	0.205811	1915.962524
3348.512710	1.099775	0.179345	478.402313
3348.513671	0.618369	0.179345	1072.655029
3348.514581	0.088337	0.179345	1153.042114
3348.515501	0.085829	0.179345	1232.004639
3348.516404	0.085880	0.179345	1309.554443
3348.517352	0.085818	0.179345	1390.909790
3348.518275	0.085763	0.179345	1470.068970
3348.519191	0.085792	0.179345	1548.654663
3348.520088	0.085851	0.179345	1625.662842
3348.521029	0.085811	0.179345	1706.410522
3348.521952	0.085825	0.179345	1785.627197
3348.522844	0.085898	0.179345	1862.248657
3349.559756	1.112168	0.207374	492.690399
3349.560728	0.585663	0.207374	1061.954712
3349.561648	0.088107	0.207374	1143.012817
3349.562537	0.085811	0.207374	1219.298340
3349.563471	0.085789	0.207374	1299.424805
3349.564390	0.085774	0.207374	1378.251099
3349.565296	0.085865	0.207374	1456.045166
3349.566191	0.085844	0.207374	1532.875122
3349.567137	0.085917	0.207374	1614.152344
3349.568055	0.085807	0.207374	1692.923096
3349.568973	0.085858	0.207374	1771.740845
3349.569864	0.085803	0.207374	1848.191528
3350.574550	1.115508	0.179627	500.862976
3350.575451	0.679567	0.179627	1113.152588
3350.576384	0.089857	0.179627	1196.989380
3350.577286	0.085781	0.179627	1274.364014
3350.578201	0.085829	0.179627	1352.897461
3350.579089	0.085774	0.179627	1429.064697
3350.580041	0.085829	0.179627	1510.773804
3350.580941	0.085803	0.179627	1587.996704
3350.581863	0.085818	0.179627	1667.120728
3350.582751	0.085895	0.179627	1743.395264
3350.583699	0.085781	0.179627	1824.715942
3350.584614	0.085851	0.179627	1903.269409
3351.632331	1.098735	0.207769	477.949860
3351.633285	0.650881	0.207769	1098.890625
3351.634200	0.088506	0.207769	1179.873535
3351.635120	0.085836	0.207769	1258.842773
3351.636018	0.085752	0.207769	1335.848022
3351.636970	0.085822	0.207769	1417.550171
3351.637881	0.085778	0.207769	1495.693604
3351.638799	0.085774	0.207769	1574.434082
3351.639689	0.085748	0.207769	1650.750000
3351.640645	0.085767	0.207769	1732.742920
3351.641570	0.085785	0.207769	1812.093994
3351.642463	0.085836	0.207769	1888.745728
3352.635852	1.106788	0.180412	486.986908
3352.636841	0.580997	0.180412	1061.593262
3352.637739	0.088180	0.180412	1140.778809
3352.638661	0.085844	0.180412	1219.926514
3352.639548	0.085748	0.180412	1295.985229
3352.640485	0.085792	0.180412	1376.372559
3352.641402	0.085851	0.180412	1455.097778
3352.642296	0.085844	0.180412	1531.841919
3352.643233	0.085800	0.180412	1612.236084
3352.644145	0.085785	0.180412	1690.471924
3352.645074	0.085854	0.180412	1770.230713
3352.645960	0.085873	0.180412	1846.313965
3353.704441	1.140055	0.206093	543.806213
3353.705353	0.614436	0.206093	1104.171875
3353.706238	0.089176	0.206093	1183.092651
3353.707154	0.085778	0.206093	1261.664917
3353.708090	0.085836	0.206093	1342.007568
3353.709004	0.085880	0.206093	1420.501953
3353.709898	0.085851	0.206093	1497.252563
3353.710847	0.085825	0.206093	1578.700684
3353.711780	0.085778	0.206093	1658.731201
3353.712676	0.085906	0.206093	1735.702759
3353.713593	0.085880	0.206093	1814.454834
3353.714529	0.085869	0.206093	1894.828369
3354.697188	1.126084	0.182346	517.998596
3354.698110	0.631124	0.182346	1099.895142
3354.698998	0.089432	0.182346	1179.311035
3354.699933	0.085800	0.182346	1259.533569
3354.700874	0.085792	0.182346	1340.264038
3354.701804	0.085906	0.182346	1420.156372
3354.702693	0.085847	0.182346	1496.474487
3354.703652	0.085836	0.182346	1578.791382
3354.704586	0.085811	0.182346	1658.938477
3354.705484	0.085902	0.182346	1736.078613
3354.706395	0.085873	0.182346	1814.308716
3354.707328	0.085862	0.182346	1894.417847
3355.774690	1.116387	0.203801	504.606812
3355.775591	0.676956	0.203801	1114.543701
3355.776477	0.090344	0.203801	1194.588745
3355.777425	0.085789	0.203801	1275.916260
3355.778361	0.085759	0.203801	1356.186890
3355.779255	0.085851	0.203801	1432.937500
3355.780169	0.085774	0.203801	1511.334839
3355.781106	0.085869	0.203801	1591.794189
3355.782023	0.085774	0.203801	1670.448853
3355.782918	0.085789	0.203801	1747.229614
3355.783865	0.085759	0.203801	1828.443604
3355.784787	0.085814	0.203801	1907.564331
3356.760047	1.160867	0.185266	550.250793
3356.761015	0.533591	0.185266	1066.767090
3356.761926	0.087565	0.185266	1146.538574
3356.762818	0.085814	0.185266	1223.084839
3356.763765	0.085854	0.185266	1304.389038
3356.764708	0.085906	0.185266	1385.398193
3356.765598	0.085884	0.185266	1461.834717
3356.766510	0.085792	0.185266	1540.077271
3356.767446	0.085781	0.185266	1620.368530
3356.768369	0.085822	0.185266	1699.581787
3356.769263	0.085825	0.185266	1776.309570
3356.770207	0.085767	0.185266	1857.273193
3357.842640	1.114977	0.198927	499.509644
3357.843558	0.669185	0.198927	1113.821045
3357.844510	0.088411	0.198927	1197.988037
3357.845453	0.085774	0.198927	1278.872803
3357.846344	0.085770	0.198927	1355.294067
3357.847257	0.085822	0.198927	1433.649170
3357.848200	0.085796	0.198927	1514.554687
3357.849117	0.085785	0.198927	1593.219482
3357.850013	0.085844	0.198927	1670.135254
3357.850966	0.085880	0.198927	1751.979004
3357.851898	0.085811	0.198927	1831.954468
3357.852798	0.085796	0.198927	1909.170776
