time (s)	coil I (A)	last det (V)	int current (uC)
2620.109058	1.165525	0.251814	576.934875
2620.109996	0.551847	0.251814	1094.567261
2620.110900	0.087986	0.251814	1174.106445
2620.111786	0.085876	0.251814	1250.192993
2620.112735	0.085876	0.251814	1331.689697
2620.113633	0.085840	0.251814	1408.773926
2620.114526	0.085898	0.251814	1485.481201
2620.115455	0.085946	0.251814	1565.325073
2620.116364	0.085862	0.251814	1643.373413
2620.117272	0.085862	0.251814	1721.335937
2620.118164	0.085854	0.251814	1797.918091
2620.119093	0.085902	0.251814	1877.721191
2621.117383	1.105902	0.251943	485.490997
2621.118334	0.658495	0.251943	1111.719604
2621.119243	0.088748	0.251943	1192.391113
2621.120141	0.085811	0.251943	1269.448975
2621.121028	0.085792	0.251943	1345.546631
2621.121973	0.085906	0.251943	1426.727539
2621.122874	0.085880	0.251943	1504.105469
2621.123767	0.085833	0.251943	1580.753906
2621.124656	0.085829	0.251943	1657.055786
2621.125610	0.085851	0.251943	1738.957520
2621.126520	0.085829	0.251943	1817.061768
2621.127415	0.085803	0.251943	1893.855713
2622.176205	1.107733	0.253184	485.187103
2622.177117	0.681006	0.253184	1106.264526
2622.178013	0.090322	0.253184	1187.193237
2622.178968	0.085858	0.253184	1269.187744
2622.179878	0.085891	0.253184	1347.348633
2622.180773	0.085862	0.253184	1424.194946
2622.181712	0.085814	0.253184	1504.774536
2622.182610	0.085818	0.253184	1581.838989
2622.183506	0.085792	0.253184	1658.708862
2622.184396	0.085789	0.253184	1735.060669
2622.185328	0.085822	0.253184	1815.046387
2622.186223	0.085836	0.253184	1891.869751
2623.184891	1.140531	0.252910	547.454834
2623.185835	0.585154	0.252910	1099.840088
2623.186722	0.088411	0.252910	1178.260376
2623.187638	0.085814	0.252910	1256.866211
2623.188571	0.085858	0.252910	1336.971924
2623.189489	0.085865	0.252910	1415.796387
2623.190381	0.085829	0.252910	1492.355713
2623.191327	0.085909	0.252910	1573.625977
2623.192265	0.085800	0.252910	1654.105957
2623.193166	0.085917	0.252910	1731.516968
2623.194088	0.085840	0.252910	1810.661255
2623.195017	0.085800	0.252910	1890.369019
2624.242649	1.113816	0.254779	494.534271
2624.243582	0.663662	0.254779	1113.731079
2624.244515	0.088510	0.254779	1196.310425
2624.245428	0.085800	0.254779	1274.645386
2624.246349	0.085811	0.254779	1353.676880
2624.247242	0.085854	0.254779	1430.344971
2624.248193	0.085803	0.254779	1511.943848
2624.249128	0.085825	0.254779	1592.190430
2624.250028	0.085862	0.254779	1669.466064
2624.250948	0.085811	0.254779	1748.411743
2624.251878	0.085833	0.254779	1828.235962
2624.252789	0.085858	0.254779	1906.452759
2625.252550	1.101233	0.256846	477.935059
2625.253480	0.666306	0.256846	1097.599854
2625.254436	0.088638	0.256846	1182.337524
2625.255345	0.085898	0.256846	1260.419189
2625.256232	0.085840	0.256846	1336.559082
2625.257169	0.085822	0.256846	1416.973877
2625.258107	0.085953	0.256846	1497.598145
2625.259006	0.085862	0.256846	1574.787964
2625.259929	0.085876	0.256846	1654.052002
2625.260840	0.085836	0.256846	1732.248779
2625.261767	0.085851	0.256846	1811.832520
2625.262662	0.085854	0.256846	1888.672241
2626.307826	1.127102	0.251979	528.610840
2626.308734	0.634109	0.251979	1104.381714
2626.309669	0.089202	0.251979	1187.785278
2626.310612	0.085829	0.251979	1268.721924
2626.311536	0.085814	0.251979	1348.014282
2626.312420	0.085854	0.251979	1423.909668
2626.313352	0.085906	0.251979	1503.973877
2626.314283	0.085873	0.251979	1583.921509
2626.315195	0.085891	0.251979	1662.254150
2626.316087	0.085873	0.251979	1738.852661
2626.317030	0.085741	0.251979	1819.706421
2626.317958	0.085778	0.251979	1899.307983
2627.321062	1.135364	0.257172	531.350281
2627.321961	0.651859	0.257172	1117.371582
2627.322896	0.089172	0.257172	1200.747803
2627.323828	0.085803	0.257172	1280.716431
2627.324752	0.085836	0.257172	1360.029053
2627.325647	0.085862	0.257172	1436.875366
2627.326593	0.085876	0.257172	1518.114502
2627.327534	0.085829	0.257172	1598.879517
2627.328430	0.085891	0.257172	1675.837891
2627.329339	0.085880	0.257172	1753.902954
2627.330280	0.085840	0.257172	1834.678223
2627.331196	0.085792	0.257172	1913.263916
2628.372171	1.104320	0.248269	483.692169
2628.373148	0.613872	0.248269	1083.445190
2628.374068	0.087953	0.248269	1164.361816
2628.374963	0.085836	0.248269	1241.185181
2628.375875	0.085807	0.248269	1319.441040
2628.376814	0.085811	0.248269	1400.017090
2628.377728	0.085847	0.248269	1478.481445
2628.378622	0.085920	0.248269	1555.294312
2628.379555	0.085796	0.248269	1635.341919
2628.380468	0.085873	0.248269	1713.743774
2628.381389	0.085953	0.248269	1792.906860
2628.382286	0.085851	0.248269	1869.915039
2629.391299	1.093542	0.253555	472.410339
2629.392255	0.639910	0.253555	1084.164062
2629.393173	0.088890	0.253555	1165.765381
2629.394087	0.085884	0.253555	1244.263184
2629.394976	0.085851	0.253555	1320.584595
2629.395936	0.085876	0.253555	1403.026001
2629.396829	0.085873	0.253555	1479.710449
2629.397745	0.085920	0.253555	1558.413574
2629.398641	0.085891	0.253555	1635.372070
2629.399583	0.085792	0.253555	1716.188354
2629.400515	0.085829	0.253555	1796.180908
2629.401404	0.085873	0.253555	1872.521851
2630.434764	1.102123	0.252620	484.934021
2630.435752	0.565730	0.252620	1043.875244
2630.436646	0.088206	0.252620	1122.731079
2630.437571	0.085781	0.252620	1202.078735
2630.438460	0.085844	0.252620	1278.393555
2630.439410	0.085796	0.252620	1359.899658
2630.440324	0.085778	0.252620	1438.300415
2630.441220	0.085833	0.252620	1515.206299
2630.442155	0.085774	0.252620	1595.404907
2630.443060	0.085829	0.252620	1673.080078
2630.443984	0.085781	0.252620	1752.341919
2630.444872	0.085833	0.252620	1828.561157
2631.463378	1.100314	0.254517	488.539276
2631.464279	0.688444	0.254517	1108.826904
2631.465217	0.090385	0.254517	1193.607544
2631.466135	0.085796	0.254517	1272.368164
2631.467052	0.085822	0.254517	1351.066528
2631.467939	0.085792	0.254517	1427.164185
2631.468892	0.085759	0.254517	1508.892822
2631.469788	0.085807	0.254517	1585.775757
2631.470704	0.085840	0.254517	1664.405029
2631.471604	0.085818	0.254517	1741.641113
2631.472556	0.085763	0.254517	1823.287476
2631.473466	0.085829	0.254517	1901.391724
2632.496850	1.113713	0.260576	497.829895
2632.497744	0.677999	0.260576	1103.961182
2632.498721	0.088392	0.260576	1190.320435
2632.499618	0.085785	0.260576	1267.269531
2632.500509	0.085763	0.260576	1343.684326
2632.501458	0.085909	0.260576	1425.212402
2632.502354	0.085719	0.260576	1502.016602
2632.503272	0.085781	0.260576	1580.763794
2632.504168	0.085781	0.260576	1657.623779
2632.505110	0.085789	0.260576	1738.436646
2632.506019	0.085767	0.260576	1816.398437
2632.506941	0.085814	0.260576	1895.519165
2633.536220	1.116874	0.257970	503.710052
2633.537120	0.678677	0.257970	1114.519165
2633.538074	0.089886	0.257970	1200.270874
2633.538974	0.085829	0.257970	1277.516846
2633.539892	0.085880	0.257970	1356.354736
2633.540791	0.085818	0.257970	1433.505005
2633.541719	0.085865	0.257970	1513.188110
2633.542634	0.085920	0.257970	1591.805298
2633.543560	0.085792	0.257970	1671.248901
2633.544456	0.085818	0.257970	1748.141724
2633.545402	0.085862	0.257970	1829.366943
2633.546301	0.085822	0.257970	1906.520508
2634.559433	1.101691	0.262066	484.743896
2634.560323	0.702711	0.262066	1110.156860
2634.561269	0.089121	0.262066	1194.465454
2634.562181	0.085884	0.262066	1272.791504
2634.563072	0.085895	0.262066	1349.323730
2634.563994	0.085906	0.262066	1428.528809
2634.564915	0.085873	0.262066	1507.617676
2634.565823	0.085902	0.262066	1585.616821
2634.566713	0.085862	0.262066	1662.033813
2634.567645	0.085935	0.262066	1742.125244
2634.568555	0.085873	0.262066	1820.269531
2634.569455	0.085865	0.262066	1897.548462
2635.606730	1.096728	0.254272	479.270325
2635.607672	0.641865	0.254272	1083.907471
2635.608585	0.089059	0.254272	1165.218140
2635.609488	0.085781	0.254272	1242.678589
2635.610377	0.085847	0.254272	1318.996704
2635.611312	0.085847	0.254272	1399.263794
2635.612209	0.085796	0.254272	1476.222656
2635.613102	0.085847	0.254272	1552.884155
2635.614038	0.085913	0.254272	1633.298828
2635.614937	0.085840	0.254272	1710.468872
2635.615835	0.085898	0.254272	1787.605713
2635.616727	0.085876	0.254272	1864.207520
2636.624087	1.123499	0.263057	499.956848
2636.625019	0.636592	0.263057	1093.260376
2636.625920	0.089077	0.263057	1173.518921
2636.626854	0.085895	0.263057	1253.744629
2636.627759	0.085920	0.263057	1331.502563
2636.628659	0.085887	0.263057	1408.801270
2636.629547	0.085836	0.263057	1485.023804
2636.630490	0.085865	0.263057	1565.994995
2636.631388	0.085854	0.263057	1643.092285
2636.632285	0.085928	0.263057	1720.169434
2636.633177	0.085862	0.263057	1796.758179
2636.634130	0.085961	0.263057	1878.678711
2637.673944	1.115149	0.250795	490.665527
2637.674876	0.645652	0.250795	1092.413086
2637.675775	0.089246	0.250795	1172.644897
2637.676693	0.085880	0.250795	1251.482910
2637.677598	0.085917	0.250795	1329.237549
2637.678498	0.085792	0.250795	1406.450562
2637.679387	0.085789	0.250795	1482.716553
2637.680343	0.085880	0.250795	1564.817993
2637.681243	0.085913	0.250795	1642.139771
2637.682141	0.085913	0.250795	1719.289673
2637.683033	0.085844	0.250795	1795.862061
2637.683956	0.085924	0.250795	1875.169922
2638.692043	1.101511	0.265680	481.360352
2638.692941	0.695541	0.265680	1105.955933
2638.693894	0.088986	0.265680	1190.759155
2638.694806	0.085858	0.265680	1269.061768
2638.695705	0.085924	0.265680	1346.307495
2638.696645	0.085920	0.265680	1427.072632
2638.697544	0.085898	0.265680	1504.295288
2638.698443	0.085811	0.265680	1581.438965
2638.699330	0.085972	0.265680	1657.695801
2638.700268	0.085928	0.265680	1738.296021
2638.701169	0.085865	0.265680	1815.660767
2638.702071	0.085854	0.265680	1893.101562
2639.736333	1.186183	0.244930	596.649963
2639.737252	0.569769	0.244930	1120.267944
2639.738159	0.088224	0.244930	1200.286987
2639.739049	0.085898	0.244930	1276.736572
2639.739990	0.085836	0.244930	1357.508423
2639.740889	0.085822	0.244930	1434.661987
2639.741788	0.085840	0.244930	1511.832031
2639.742676	0.085858	0.244930	1588.074097
2639.743625	0.085935	0.244930	1669.626465
2639.744537	0.085884	0.244930	1747.952515
2639.745434	0.085847	0.244930	1824.957397
2639.746354	0.085847	0.244930	1903.936768
2640.763375	1.137605	0.259057	532.399109
2640.764291	0.622775	0.259057	1102.860718
2640.765181	0.089194	0.259057	1182.243652
2640.766147	0.085902	0.259057	1265.225098
2640.767081	0.085829	0.259057	1345.389282
2640.767981	0.085847	0.259057	1422.651733
2640.768908	0.085851	0.259057	1502.235474
2640.769841	0.085836	0.259057	1582.320679
2640.770752	0.085767	0.259057	1660.454102
2640.771643	0.085884	0.259057	1736.976562
2640.772591	0.085825	0.259057	1818.338867
2640.773516	0.085873	0.259057	1897.771240
2641.797583	1.106125	0.244821	486.695221
2641.798478	0.686023	0.244821	1100.685791
2641.799451	0.088645	0.244821	1186.937378
2641.800394	0.085851	0.244821	1267.894775
2641.801295	0.085844	0.244821	1345.239746
2641.802216	0.085895	0.244821	1424.348877
2641.803147	0.085756	0.244821	1504.187378
2641.804067	0.085873	0.244821	1583.190308
2641.804956	0.085895	0.244821	1659.550781
2641.805895	0.085869	0.244821	1740.181885
2641.806830	0.085840	0.244821	1820.442139
2641.807728	0.085891	0.244821	1897.572388
2642.837202	1.108887	0.259355	487.910156
2642.838102	0.682738	0.259355	1102.374390
2642.839068	0.088513	0.259355	1187.878174
2642.839995	0.085822	0.259355	1267.434692
2642.840887	0.085902	0.259355	1344.059326
2642.841818	0.085811	0.259355	1423.948975
2642.842753	0.085814	0.259355	1504.185303
2642.843674	0.085906	0.259355	1583.304443
2642.844564	0.085836	0.259355	1659.698608
2642.845490	0.085836	0.259355	1739.182861
2642.846431	0.085906	0.259355	1820.020142
2642.847332	0.085833	0.259355	1897.355225
2643.858657	1.130241	0.251403	518.780396
2643.859589	0.615623	0.251403	1092.540649
2643.860486	0.088949	0.251403	1172.327881
2643.861435	0.085847	0.251403	1253.796875
2643.862364	0.085917	0.251403	1333.613525
2643.863279	0.085869	0.251403	1412.183838
2643.864173	0.085770	0.251403	1488.862427
2643.865124	0.085836	0.251403	1570.492676
2643.866060	0.085781	0.251403	1650.783936
2643.866956	0.085847	0.251403	1727.703003
2643.867871	0.085869	0.251403	1806.273315
2643.868796	0.085763	0.251403	1885.604004
2644.909764	1.097369	0.260000	477.355713
2644.910734	0.620321	0.260000	1079.067139
2644.911633	0.088678	0.260000	1158.788574
2644.912560	0.085825	0.260000	1238.348511
2644.913447	0.085833	0.260000	1314.481934
2644.914377	0.085851	0.260000	1394.323242
2644.915291	0.085763	0.260000	1472.710571
2644.916181	0.085891	0.260000	1549.153687
2644.917086	0.085792	0.260000	1626.795654
2644.918025	0.085833	0.260000	1707.392334
2644.918947	0.085836	0.260000	1786.533325
2644.919837	0.085862	0.260000	1862.950317
2645.922256	1.110333	0.256109	491.877625
2645.923153	0.680629	0.256109	1102.401611
2645.924125	0.088656	0.256109	1188.575195
2645.925024	0.085745	0.256109	1265.659668
2645.925911	0.085803	0.256109	1341.767090
2645.926837	0.085803	0.256109	1421.220825
2645.927745	0.085778	0.256109	1499.106934
2645.928664	0.085862	0.256109	1578.013916
2645.929563	0.085800	0.256109	1655.147705
2645.930516	0.085833	0.256109	1736.946045
2645.931425	0.085814	0.256109	1814.951172
2645.932320	0.085822	0.256109	1891.761475
2646.980048	1.110480	0.260548	489.721558
2646.980959	0.687323	0.260548	1115.872803
2646.981848	0.090337	0.260548	1196.182373
2646.982782	0.085909	0.260548	1276.421753
2646.983690	0.086008	0.260548	1354.517334
2646.984586	0.085887	0.260548	1431.472534
2646.985476	0.085822	0.260548	1507.853760
2646.986411	0.085887	0.260548	1588.158569
2646.987332	0.085844	0.260548	1667.220459
2646.988235	0.085909	0.260548	1744.796631
2646.989127	0.085939	0.260548	1821.453979
2646.990077	0.085913	0.260548	1903.071411
2647.987417	1.122609	0.259162	508.541718
2647.988315	0.675927	0.259162	1115.523682
2647.989259	0.088927	0.259162	1199.470825
2647.990162	0.085759	0.259162	1276.911499
2647.991059	0.085796	0.259162	1353.870361
2647.991944	0.085763	0.259162	1429.770508
2647.992870	0.085909	0.259162	1509.322632
2647.993782	0.085756	0.259162	1587.531738
2647.994683	0.085833	0.259162	1664.866821
2647.995613	0.085822	0.259162	1744.680908
2647.996517	0.085858	0.259162	1822.296631
2647.997413	0.085833	0.259162	1899.202515
2649.047508	1.109568	0.258791	491.538574
2649.048402	0.690308	0.258791	1108.673584
2649.049339	0.089198	0.258791	1192.252075
2649.050249	0.085858	0.258791	1270.383057
2649.051146	0.085836	0.258791	1347.378174
2649.052062	0.085803	0.258791	1425.973877
2649.052972	0.085942	0.258791	1504.181396
2649.053880	0.085763	0.258791	1582.054199
2649.054774	0.085800	0.258791	1658.759033
2649.055709	0.085909	0.258791	1739.084351
2649.056606	0.085880	0.258791	1816.118774
2649.057511	0.085814	0.258791	1893.780640
2650.054378	1.113098	0.260540	520.929932
2650.055329	0.575775	0.260540	1068.492065
2650.056258	0.087916	0.260540	1150.166260
2650.057144	0.085748	0.260540	1226.139282
2650.058083	0.085792	0.260540	1306.698242
2650.059011	0.085796	0.260540	1386.316895
2650.059922	0.085822	0.260540	1464.500366
2650.060823	0.085800	0.260540	1541.805786
2650.061766	0.085840	0.260540	1622.752808
2650.062703	0.085803	0.260540	1703.150391
2650.063606	0.085803	0.260540	1780.630737
2650.064526	0.085829	0.260540	1859.593262
2651.112407	1.104990	0.257063	490.615662
2651.113308	0.684862	0.257063	1107.676392
2651.114231	0.090352	0.257063	1191.070923
2651.115166	0.085715	0.257063	1271.214722
2651.116093	0.085807	0.257063	1350.757690
2651.116986	0.085833	0.257063	1427.406128
2651.117906	0.085811	0.257063	1506.351807
2651.118842	0.085778	0.257063	1586.639648
2651.119762	0.085825	0.257063	1665.598877
2651.120650	0.085811	0.257063	1741.798584
2651.121581	0.085723	0.257063	1821.606323
2651.122519	0.085818	0.257063	1902.103516
2652.122577	1.104990	0.258630	483.985718
2652.123478	0.692113	0.258630	1107.579590
2652.124448	0.088890	0.258630	1193.803223
2652.125369	0.085767	0.258630	1272.794312
2652.126264	0.085822	0.258630	1349.604614
2652.127168	0.085723	0.258630	1427.097900
2652.128109	0.085792	0.258630	1507.828369
2652.129036	0.085829	0.258630	1587.391724
2652.129919	0.085836	0.258630	1663.185059
2652.130840	0.085715	0.258630	1742.128906
2652.131776	0.085730	0.258630	1822.372192
2652.132690	0.085800	0.258630	1900.792969
2653.176793	1.108400	0.251528	506.538635
2653.177746	0.595118	0.251528	1073.686523
2653.178671	0.088176	0.251528	1155.249512
2653.179560	0.085800	0.251528	1231.525269
2653.180474	0.085840	0.251528	1309.982910
2653.181412	0.085891	0.251528	1390.548828
2653.182329	0.085876	0.251528	1469.297607
2653.183225	0.085792	0.251528	1546.167480
2653.184177	0.085836	0.251528	1627.883545
2653.185105	0.085876	0.251528	1707.576904
2653.186004	0.085891	0.251528	1784.792969
2653.186919	0.085884	0.251528	1863.376587
2654.191088	1.122579	0.254973	530.980042
2654.191997	0.634636	0.254973	1107.864380
2654.192924	0.089158	0.254973	1190.513550
2654.193858	0.085745	0.254973	1270.598999
2654.194774	0.085796	0.254973	1349.187988
2654.195670	0.085748	0.254973	1426.018433
2654.196600	0.085748	0.254973	1505.764404
2654.197512	0.085803	0.254973	1584.016968
2654.198438	0.085833	0.254973	1663.497925
2654.199326	0.085833	0.254973	1739.717163
2654.200276	0.085851	0.254973	1821.275513
2654.201194	0.085811	0.254973	1900.049561
2655.241420	1.099102	0.251089	478.109161
2655.242353	0.681182	0.251089	1113.651611
2655.243273	0.089062	0.251089	1195.589111
2655.244170	0.085767	0.251089	1272.521729
2655.245060	0.085803	0.251089	1348.886597
2655.246004	0.085825	0.251089	1429.905640
2655.246923	0.085854	0.251089	1508.805908
2655.247842	0.085844	0.251089	1587.696045
2655.248730	0.085803	0.251089	1663.889282
2655.249687	0.085854	0.251089	1746.052002
2655.250582	0.085854	0.251089	1822.891724
2655.251474	0.085862	0.251089	1899.480469
2656.260069	1.113351	0.257784	504.347931
2656.260973	0.669148	0.257784	1109.257690
2656.261864	0.090037	0.257784	1189.480347
2656.262809	0.085840	0.257784	1270.598999
2656.263721	0.085862	0.257784	1348.905029
2656.264611	0.085770	0.257784	1425.240601
2656.265533	0.085833	0.257784	1504.378174
2656.266472	0.085825	0.257784	1584.968018
2656.267371	0.085785	0.257784	1662.088623
2656.268257	0.085822	0.257784	1738.126465
2656.269199	0.085858	0.257784	1819.004883
2656.270104	0.085789	0.257784	1896.643555
2657.307097	1.111055	0.252991	499.974609
2657.307996	0.677377	0.252991	1108.936279
2657.308937	0.090146	0.252991	1193.764160
2657.309849	0.085785	0.252991	1272.000000
2657.310760	0.085792	0.252991	1350.156738
2657.311667	0.085858	0.252991	1428.030029
2657.312592	0.085818	0.252991	1507.411621
2657.313492	0.085759	0.252991	1584.594971
2657.314408	0.085829	0.252991	1663.214233
2657.315307	0.085829	0.252991	1740.374390
2657.316263	0.085822	0.252991	1822.419800
2657.317166	0.085785	0.252991	1899.883545
2658.328008	1.106737	0.259291	484.750854
2658.328972	0.596829	0.259291	1060.093750
2658.329877	0.088542	0.259291	1140.224731
2658.330770	0.085847	0.259291	1216.886230
2658.331700	0.085851	0.259291	1296.727539
2658.332608	0.085829	0.259291	1374.660156
2658.333514	0.085833	0.259291	1452.424438
2658.334405	0.085869	0.259291	1528.933838
2658.335354	0.085917	0.259291	1610.468872
2658.336256	0.085789	0.259291	1687.850220
2658.337153	0.085887	0.259291	1764.891235
2658.338038	0.085770	0.259291	1840.797974
2659.374021	1.101639	0.253990	480.314789
2659.374970	0.662402	0.253990	1108.934570
2659.375886	0.088905	0.253990	1190.371582
2659.376781	0.085785	0.253990	1267.149048
2659.377671	0.085770	0.253990	1343.484619
2659.378623	0.085909	0.253990	1425.270386
2659.379523	0.085770	0.253990	1502.463623
2659.380423	0.085829	0.253990	1579.709595
2659.381313	0.085862	0.253990	1656.126587
2659.382260	0.085807	0.253990	1737.385742
2659.383163	0.085800	0.253990	1814.862793
2659.384053	0.085822	0.253990	1891.243896
2660.395236	1.129563	0.258179	511.692017
2660.396165	0.629388	0.258179	1096.393799
2660.397065	0.089106	0.258179	1176.589600
2660.397952	0.085854	0.258179	1252.742554
2660.398885	0.085858	0.258179	1332.848145
2660.399790	0.085887	0.258179	1410.576294
2660.400680	0.085865	0.258179	1486.996582
2660.401620	0.085887	0.258179	1567.730835
2660.402531	0.085873	0.258179	1645.960937
2660.403436	0.085822	0.258179	1723.629395
2660.404326	0.085869	0.258179	1800.052979
2660.405271	0.085946	0.258179	1881.271973
2661.441550	1.158325	0.249998	582.637573
2661.442467	0.565301	0.249998	1101.019043
2661.443371	0.088158	0.249998	1180.713867
2661.444257	0.085719	0.249998	1256.660889
2661.445184	0.085975	0.249998	1336.359985
2661.446086	0.085822	0.249998	1413.770996
2661.446976	0.085844	0.249998	1490.171753
2661.447874	0.085851	0.249998	1567.265747
2661.448808	0.085946	0.249998	1647.539307
2661.449707	0.085818	0.249998	1724.689575
2661.450597	0.085946	0.249998	1801.181519
2661.451525	0.085858	0.249998	1880.857910
2662.461673	1.142468	0.253111	526.677856
2662.462600	0.621665	0.253111	1102.961304
2662.463505	0.088802	0.253111	1183.327515
2662.464392	0.085781	0.253111	1259.415527
2662.465343	0.085920	0.253111	1341.125854
2662.466244	0.085803	0.253111	1418.434570
2662.467132	0.085844	0.253111	1494.663574
2662.468074	0.085884	0.253111	1575.566162
2662.468985	0.085858	0.253111	1653.782959
2662.469890	0.085778	0.253111	1731.411621
2662.470780	0.085829	0.253111	1807.799316
2662.471711	0.085840	0.253111	1887.716187
2663.510227	1.104580	0.249426	484.910645
2663.511179	0.661494	0.249426	1114.653076
2663.512090	0.088564	0.249426	1195.335327
2663.512996	0.085800	0.249426	1273.069702
2663.513884	0.085876	0.249426	1349.328003
2663.514831	0.085895	0.249426	1430.670410
2663.515740	0.085792	0.249426	1508.655518
2663.516634	0.085847	0.249426	1585.402832
2663.517524	0.085796	0.249426	1661.761230
2663.518462	0.085833	0.249426	1742.272095
2663.519366	0.085851	0.249426	1819.881226
2663.520258	0.085840	0.249426	1896.450317
2664.526535	1.099164	0.256326	477.037140
2664.527479	0.643484	0.256326	1084.485962
2664.528386	0.089191	0.256326	1165.381836
2664.529286	0.085778	0.256326	1242.581665
2664.530174	0.085807	0.256326	1318.778198
2664.531116	0.085840	0.256326	1399.639282
2664.532022	0.085836	0.256326	1477.406860
2664.532925	0.085833	0.256326	1554.913574
2664.533815	0.085803	0.256326	1631.278442
2664.534753	0.085873	0.256326	1711.827148
2664.535662	0.085920	0.256326	1789.928833
2664.536565	0.085851	0.256326	1867.452148
2665.579715	1.095835	0.247303	473.400696
2665.580684	0.634369	0.247303	1088.104248
2665.581579	0.088634	0.247303	1167.431641
2665.582489	0.085803	0.247303	1245.512573
2665.583378	0.085756	0.247303	1321.749268
2665.584315	0.085854	0.247303	1402.194946
2665.585221	0.085847	0.247303	1479.972534
2665.586125	0.085851	0.247303	1557.581665
2665.587014	0.085789	0.247303	1633.847656
2665.587965	0.085844	0.247303	1715.484863
2665.588874	0.085807	0.247303	1793.483276
2665.589771	0.085825	0.247303	1870.468506
2666.591691	1.104851	0.255561	483.924805
2666.592605	0.681936	0.255561	1107.214355
2666.593491	0.090352	0.255561	1187.265869
2666.594439	0.085822	0.255561	1268.624634
2666.595351	0.085865	0.255561	1346.933960
2666.596243	0.085825	0.255561	1423.489990
2666.597179	0.085931	0.255561	1503.921753
2666.598079	0.085906	0.255561	1581.236938
2666.598981	0.085829	0.255561	1658.654541
2666.599872	0.085814	0.255561	1735.114990
2666.600802	0.085884	0.255561	1814.986938
2666.601710	0.085906	0.255561	1892.989380
2667.648210	1.115991	0.245909	496.616089
2667.649121	0.674202	0.245909	1110.813721
2667.650010	0.090308	0.245909	1191.097168
2667.650963	0.085902	0.245909	1272.961914
2667.651871	0.085865	0.245909	1350.927734
2667.652764	0.085836	0.245909	1427.579468
2667.653692	0.085924	0.245909	1507.317017
2667.654594	0.085906	0.245909	1584.803955
2667.655494	0.085906	0.245909	1662.119141
2667.656386	0.085865	0.245909	1738.711182
2667.657315	0.085931	0.245909	1818.541504
2667.658212	0.085942	0.245909	1895.631836
2668.656614	1.122440	0.257551	519.689819
2668.657555	0.602542	0.257551	1086.681396
2668.658447	0.088704	0.257551	1165.805054
2668.659374	0.085781	0.257551	1245.324219
2668.660310	0.085833	0.257551	1325.663452
2668.661227	0.085869	0.257551	1404.405518
2668.662114	0.085803	0.257551	1480.512939
2668.663042	0.085811	0.257551	1560.145142
2668.663976	0.085865	0.257551	1640.343506
2668.664873	0.085840	0.257551	1717.341797
2668.665789	0.085822	0.257551	1795.954346
2668.666717	0.085869	0.257551	1875.640869
2669.716731	1.151880	0.246561	557.509888
2669.717637	0.612656	0.246561	1112.576416
2669.718525	0.089136	0.246561	1191.729004
2669.719446	0.085840	0.246561	1270.787476
2669.720392	0.085796	0.246561	1351.950439
2669.721307	0.085862	0.246561	1430.514038
2669.722199	0.085873	0.246561	1507.112549
2669.723144	0.085858	0.246561	1588.248535
2669.724073	0.085741	0.246561	1667.901855
2669.724968	0.085928	0.246561	1744.807129
2669.725895	0.085763	0.246561	1824.309326
2669.726834	0.085807	0.246561	1904.881958
2670.723068	1.151470	0.255633	548.099609
2670.723983	0.608870	0.255633	1105.215332
2670.724869	0.089026	0.255633	1184.092285
2670.725792	0.085745	0.255633	1263.234619
2670.726729	0.085763	0.255633	1343.594482
2670.727642	0.085840	0.255633	1421.966309
2670.728533	0.085814	0.255633	1498.426758
2670.729481	0.085792	0.255633	1579.757812
2670.730412	0.085836	0.255633	1659.671265
2670.731309	0.085800	0.255633	1736.633423
2670.732242	0.085792	0.255633	1816.677612
2670.733177	0.085803	0.255633	1896.903564
2671.783154	1.120477	0.248177	528.865295
2671.784072	0.624324	0.248177	1101.994385
2671.784961	0.089198	0.248177	1181.291382
2671.785913	0.085825	0.248177	1262.996948
2671.786851	0.085737	0.248177	1343.418579
2671.787754	0.085840	0.248177	1420.932007
2671.788673	0.085818	0.248177	1499.798584
2671.789603	0.085807	0.248177	1579.598999
2671.790519	0.085818	0.248177	1658.208130
2671.791414	0.085818	0.248177	1735.015137
2671.792344	0.085752	0.248177	1814.764404
2671.793259	0.085792	0.248177	1893.264282
2672.791791	1.114285	0.256950	530.399475
2672.792736	0.577097	0.256950	1075.756348
2672.793657	0.087854	0.256950	1156.669922
2672.794549	0.085807	0.256950	1233.209717
2672.795477	0.085854	0.256950	1312.882690
2672.796408	0.085829	0.256950	1392.789307
2672.797326	0.085814	0.256950	1471.566772
2672.798213	0.085833	0.256950	1547.700195
2672.799165	0.085825	0.256950	1629.405762
2672.800102	0.085844	0.256950	1709.841064
2672.800995	0.085902	0.256950	1786.551636
2672.801908	0.085865	0.256950	1864.946777
2673.847243	1.102687	0.254928	485.182190
2673.848144	0.687557	0.254928	1104.671387
2673.849129	0.088542	0.254928	1191.885742
2673.850068	0.085844	0.254928	1272.492798
2673.850966	0.085902	0.254928	1349.632935
2673.851889	0.085836	0.254928	1428.859741
2673.852833	0.085862	0.254928	1509.913330
2673.853753	0.085770	0.254928	1588.822021
2673.854641	0.085818	0.254928	1665.028320
2673.855580	0.085814	0.254928	1745.607910
2673.856501	0.085854	0.254928	1824.679932
2673.857410	0.085825	0.254928	1902.695068
2674.862573	1.136294	0.247637	530.649292
2674.863490	0.621753	0.247637	1100.796631
2674.864377	0.089271	0.247637	1179.980225
2674.865309	0.085759	0.247637	1259.907837
2674.866252	0.085851	0.247637	1340.865234
2674.867172	0.085891	0.247637	1419.885010
2674.868059	0.085807	0.247637	1495.995728
2674.868993	0.085792	0.247637	1576.125732
2674.869932	0.085825	0.247637	1656.715576
2674.870830	0.085931	0.247637	1733.881958
2674.871747	0.085822	0.247637	1812.580322
2674.872683	0.085829	0.247637	1892.916138
2675.909357	1.119924	0.260838	516.285095
2675.910277	0.632421	0.260838	1098.112061
2675.911166	0.089308	0.260838	1177.506714
2675.912120	0.085803	0.260838	1259.363037
2675.913058	0.085858	0.260838	1339.897949
2675.913959	0.085869	0.260838	1417.265991
2675.914876	0.085781	0.260838	1495.927368
2675.915804	0.085844	0.260838	1575.590088
2675.916736	0.085822	0.260838	1655.575806
2675.917624	0.085789	0.260838	1731.756104
2675.918544	0.085887	0.260838	1810.772583
2675.919488	0.085818	0.260838	1891.784668
2676.935929	1.126674	0.241333	540.803345
2676.936842	0.609009	0.241333	1096.828369
2676.937731	0.089011	0.241333	1175.959351
2676.938671	0.085807	0.241333	1256.617798
2676.939604	0.085825	0.241333	1336.692749
2676.940526	0.085840	0.241333	1415.837036
2676.941415	0.085796	0.241333	1492.109619
2676.942363	0.085800	0.241333	1573.447632
2676.943305	0.085854	0.241333	1654.322510
2676.944201	0.085807	0.241333	1731.205444
2676.945120	0.085712	0.241333	1809.974487
2676.946049	0.085854	0.241333	1889.733276
2677.970376	1.102526	0.262357	482.906219
2677.971269	0.688671	0.262357	1097.889038
2677.972245	0.088645	0.262357	1184.406616
2677.973179	0.085887	0.262357	1264.625488
2677.974078	0.085840	0.262357	1341.795532
2677.974995	0.085891	0.262357	1420.557739
2677.975931	0.085884	0.262357	1500.944946
2677.976843	0.085880	0.262357	1579.267578
2677.977734	0.085884	0.262357	1655.790039
2677.978675	0.085803	0.262357	1736.530884
2677.979600	0.085876	0.262357	1815.966553
2677.980499	0.085865	0.262357	1893.159668
2679.007434	1.106664	0.239500	483.612091
2679.008376	0.653262	0.239500	1098.984619
2679.009323	0.088667	0.239500	1182.952271
2679.010244	0.085822	0.239500	1261.993896
2679.011130	0.085822	0.239500	1338.031738
2679.012067	0.085770	0.239500	1418.398437
2679.013006	0.085756	0.239500	1498.922974
2679.013907	0.085854	0.239500	1576.277832
2679.014819	0.085822	0.239500	1654.547119
2679.015749	0.085814	0.239500	1734.354370
2679.016677	0.085781	0.239500	1813.959351
2679.017575	0.085825	0.239500	1891.030396
2680.032222	1.113431	0.262538	498.817230
2680.033131	0.671056	0.262538	1108.807007
2680.034021	0.089960	0.262538	1188.871094
2680.034933	0.085767	0.262538	1267.090210
2680.035876	0.085708	0.262538	1347.912842
2680.036793	0.085800	0.262538	1426.591064
2680.037685	0.085869	0.262538	1503.186279
2680.038627	0.085844	0.262538	1584.050903
2680.039550	0.085822	0.262538	1663.264160
2680.040449	0.085836	0.262538	1740.430908
2680.041367	0.085811	0.262538	1819.204956
2680.042296	0.085833	0.262538	1898.943359
2681.078520	1.127454	0.236857	536.667908
2681.079464	0.581744	0.236857	1085.834595
2681.080359	0.088389	0.236857	1164.942505
2681.081274	0.085778	0.236857	1243.428955
2681.082210	0.085844	0.236857	1323.778442
2681.083118	0.085778	0.236857	1401.664551
2681.084016	0.085847	0.236857	1478.755371
2681.084935	0.085825	0.236857	1557.628784
2681.085867	0.085858	0.236857	1637.648560
2681.086783	0.085891	0.236857	1716.324829
2681.087673	0.085770	0.236857	1792.660400
2681.088624	0.085800	0.236857	1874.255737
2682.096851	1.106320	0.264580	484.567963
2682.097784	0.661359	0.264580	1101.615479
2682.098709	0.089059	0.264580	1183.994873
2682.099632	0.085752	0.264580	1263.143921
2682.100522	0.085752	0.264580	1339.463135
2682.101460	0.085825	0.264580	1419.967163
2682.102401	0.085704	0.264580	1500.614990
2682.103300	0.085818	0.264580	1577.765259
2682.104219	0.085737	0.264580	1656.557861
2682.105145	0.085811	0.264580	1736.018433
2682.106067	0.085800	0.264580	1815.125610
2682.106983	0.085789	0.264580	1893.707886
2683.146699	1.105778	0.241357	486.542145
2683.147592	0.688257	0.241357	1101.155518
2683.148561	0.088641	0.241357	1187.048950
2683.149490	0.085767	0.241357	1266.726074
2683.150389	0.085803	0.241357	1343.863159
2683.151321	0.085836	0.241357	1423.862427
2683.152255	0.085847	0.241357	1504.043701
2683.153192	0.085858	0.241357	1584.492798
2683.154079	0.085851	0.241357	1660.642456
2683.154996	0.085851	0.241357	1739.367676
2683.155934	0.085781	0.241357	1819.830444
2683.156849	0.085825	0.241357	1898.360474
2684.164037	1.096344	0.262816	474.716949
2684.165010	0.621163	0.262816	1079.108887
2684.165930	0.088030	0.262816	1160.096313
2684.166826	0.085800	0.262816	1236.972656
2684.167728	0.085767	0.262816	1314.334106
2684.168655	0.085770	0.262816	1393.843140
2684.169594	0.085880	0.262816	1474.484619
2684.170484	0.085833	0.262816	1550.875610
2684.171405	0.085770	0.262816	1629.869995
2684.172333	0.085774	0.262816	1709.468262
2684.173244	0.085836	0.262816	1787.665039
2684.174136	0.085789	0.262816	1864.188477
2685.212150	1.117731	0.248878	530.922119
2685.213051	0.639093	0.248878	1106.744873
2685.213952	0.089312	0.248878	1187.214600
2685.214893	0.085844	0.248878	1267.993286
2685.215826	0.085814	0.248878	1348.057983
2685.216738	0.085865	0.248878	1426.367310
2685.217625	0.085745	0.248878	1502.422852
2685.218575	0.085803	0.248878	1583.935913
2685.219511	0.085840	0.248878	1664.281982
2685.220404	0.085792	0.248878	1740.894409
2685.221330	0.085814	0.248878	1820.358398
2685.222268	0.085789	0.248878	1900.828125
2686.233806	1.108066	0.259444	493.089569
2686.234770	0.616692	0.259444	1087.580566
2686.235709	0.087920	0.259444	1170.137329
2686.236622	0.085796	0.259444	1248.468994
2686.237509	0.085818	0.259444	1324.589478
2686.238455	0.085796	0.259444	1405.752441
2686.239391	0.085814	0.259444	1486.074585
2686.240292	0.085876	0.259444	1563.449219
2686.241218	0.085767	0.259444	1642.869141
2686.242152	0.085778	0.259444	1722.985352
2686.243066	0.085887	0.259444	1801.486450
2686.243951	0.085785	0.259444	1877.406128
2687.275485	1.121129	0.254719	500.023590
2687.276409	0.654192	0.254719	1104.496948
2687.277304	0.089623	0.254719	1184.709351
2687.278226	0.085803	0.254719	1263.819946
2687.279145	0.085931	0.254719	1342.790894
2687.280046	0.085770	0.254719	1420.069946
2687.280940	0.085792	0.254719	1496.768188
2687.281866	0.085840	0.254719	1576.255859
2687.282772	0.085847	0.254719	1654.033447
2687.283677	0.085822	0.254719	1731.701904
2687.284565	0.085770	0.254719	1807.865845
2687.285521	0.085891	0.254719	1889.977783
2688.304369	1.121671	0.259061	533.915405
2688.305315	0.580071	0.259061	1082.662354
2688.306237	0.087931	0.259061	1163.734619
2688.307136	0.085811	0.259061	1240.878296
2688.308091	0.085873	0.259061	1322.886841
2688.309026	0.085811	0.259061	1403.119751
2688.309922	0.085844	0.259061	1480.035522
2688.310840	0.085898	0.259061	1558.890259
2688.311777	0.085825	0.259061	1639.308472
2688.312693	0.085789	0.259061	1717.890747
2688.313604	0.085789	0.259061	1796.044189
2688.314504	0.085858	0.259061	1873.316528
2689.339100	1.121818	0.256725	501.452454
2689.339997	0.677197	0.256725	1108.898437
2689.340930	0.089678	0.256725	1192.567749
2689.341869	0.085767	0.256725	1273.102539
2689.342789	0.085829	0.256725	1352.065063
2689.343684	0.085796	0.256725	1428.852417
2689.344633	0.085745	0.256725	1510.224121
2689.345569	0.085767	0.256725	1590.501709
2689.346467	0.085800	0.256725	1667.549683
2689.347388	0.085763	0.256725	1746.537354
2689.348326	0.085770	0.256725	1826.989868
2689.349238	0.085730	0.256725	1905.175659
2690.375120	1.106609	0.254654	484.694672
2690.376041	0.665478	0.254654	1097.600342
2690.376946	0.089670	0.254654	1178.752075
2690.377840	0.085789	0.254654	1255.447021
2690.378783	0.085865	0.254654	1336.418213
2690.379697	0.085792	0.254654	1414.832275
2690.380587	0.085796	0.254654	1491.190674
2690.381518	0.085822	0.254654	1571.090576
2690.382418	0.085836	0.254654	1648.343140
2690.383316	0.085789	0.254654	1725.381226
2690.384205	0.085847	0.254654	1801.699341
2690.385149	0.085858	0.254654	1882.749390
2691.402471	1.131204	0.254888	521.484863
2691.403372	0.659912	0.254888	1116.065674
2691.404333	0.089487	0.254888	1202.062988
2691.405239	0.085822	0.254888	1279.817261
2691.406137	0.085800	0.254888	1356.865234
2691.407040	0.085814	0.254888	1434.355469
2691.407975	0.085920	0.254888	1514.691040
2691.408876	0.085854	0.254888	1592.045898
2691.409774	0.085833	0.254888	1669.123535
2691.410665	0.085876	0.254888	1745.639404
2691.411616	0.085840	0.254888	1827.273071
2691.412512	0.085865	0.254888	1904.208496
2692.445145	1.102932	0.251347	490.804779
2692.446048	0.690802	0.251347	1114.598999
2692.446934	0.090608	0.251347	1194.877563
2692.447893	0.085770	0.251347	1277.131226
2692.448828	0.085800	0.251347	1357.353760
2692.449731	0.085800	0.251347	1434.830811
2692.450655	0.085822	0.251347	1514.129883
2692.451583	0.085796	0.251347	1593.748535
2692.452517	0.085704	0.251347	1673.796387
2692.453420	0.085822	0.251347	1751.293213
2692.454342	0.085800	0.251347	1830.400391
2692.455242	0.085851	0.251347	1907.666138
2693.466829	1.103287	0.253357	485.446442
2693.467797	0.586443	0.253357	1053.123169
2693.468710	0.088315	0.253357	1133.755127
2693.469609	0.085858	0.253357	1210.941650
2693.470499	0.085840	0.253357	1287.339111
2693.471448	0.085939	0.253357	1368.895020
2693.472354	0.085836	0.253357	1446.662598
2693.473254	0.085920	0.253357	1523.990967
2693.474140	0.085844	0.253357	1600.048340
2693.475063	0.085862	0.253357	1679.298828
2693.475974	0.085935	0.253357	1757.585693
2693.476870	0.085844	0.253357	1834.501465
2694.514423	1.140428	0.245784	554.248230
2694.515347	0.582092	0.245784	1092.101562
2694.516246	0.088458	0.245784	1171.625488
2694.517132	0.085781	0.245784	1247.627686
2694.518081	0.085836	0.245784	1329.086182
2694.518980	0.085803	0.245784	1406.223267
2694.519881	0.085814	0.245784	1483.541870
2694.520784	0.085862	0.245784	1561.075073
2694.521696	0.085887	0.245784	1639.404419
2694.522608	0.085818	0.245784	1717.670288
2694.523510	0.085917	0.245784	1795.167236
2694.524446	0.085891	0.245784	1875.561279
2695.532248	1.116302	0.252374	504.568726
2695.533144	0.686953	0.252374	1120.078735
2695.534059	0.090487	0.252374	1202.874390
2695.534979	0.085847	0.252374	1281.853760
2695.535890	0.085767	0.252374	1359.987183
2695.536785	0.085752	0.252374	1436.735229
2695.537706	0.085854	0.252374	1515.807251
2695.538617	0.085822	0.252374	1593.990723
2695.539516	0.085767	0.252374	1671.094849
2695.540410	0.085873	0.252374	1747.865112
2695.541352	0.085876	0.252374	1828.760742
2695.542264	0.085796	0.252374	1907.006592
2696.582608	1.098281	0.247017	484.342041
2696.583498	0.710098	0.247017	1116.328979
2696.584436	0.089377	0.247017	1200.165039
2696.585351	0.085800	0.247017	1278.671631
2696.586255	0.085756	0.247017	1356.194702
2696.587143	0.085836	0.247017	1432.417236
2696.588091	0.085844	0.247017	1513.796875
2696.589001	0.085796	0.247017	1591.871094
2696.589894	0.085774	0.247017	1668.467163
2696.590835	0.085895	0.247017	1749.294189
2696.591734	0.085854	0.247017	1826.477417
2696.592629	0.085763	0.247017	1903.235229
2697.598667	1.106697	0.252902	485.839874
2697.599576	0.688663	0.252902	1111.834839
2697.600493	0.090366	0.252902	1194.700684
2697.601425	0.085909	0.252902	1274.768311
2697.602329	0.085781	0.252902	1352.314575
2697.603219	0.085796	0.252902	1428.672974
2697.604161	0.085895	0.252902	1509.585815
2697.605062	0.085869	0.252902	1586.953857
2697.605959	0.085833	0.252902	1663.945679
2697.606853	0.085796	0.252902	1740.647217
2697.607802	0.085902	0.252902	1822.168335
2697.608709	0.085811	0.252902	1899.998535
2698.649291	1.099746	0.247234	480.589050
2698.650185	0.698192	0.247234	1104.772827
2698.651168	0.088250	0.247234	1191.522095
2698.652073	0.085807	0.247234	1269.177368
2698.652974	0.085796	0.247234	1346.479492
2698.653906	0.085862	0.247234	1426.502686
2698.654806	0.085928	0.247234	1503.837646
2698.655707	0.085807	0.247234	1581.149658
2698.656591	0.085876	0.247234	1657.064453
2698.657528	0.085902	0.247234	1737.554687
2698.658429	0.085840	0.247234	1814.896362
2698.659336	0.085803	0.247234	1892.719849
2699.665617	1.100804	0.254227	487.656372
2699.666517	0.691677	0.254227	1110.165894
2699.667434	0.090535	0.254227	1193.186157
2699.668363	0.085778	0.254227	1272.873535
2699.669263	0.085822	0.254227	1350.112915
2699.670147	0.085880	0.254227	1426.031006
2699.671101	0.085917	0.254227	1507.995605
2699.671999	0.085928	0.254227	1585.158691
2699.672908	0.085844	0.254227	1663.190430
2699.673797	0.085895	0.254227	1739.550903
2699.674753	0.085895	0.254227	1821.666260
2699.675654	0.085811	0.254227	1898.981567
2700.715739	1.111359	0.247214	502.334106
2700.716635	0.683258	0.247214	1114.533325
2700.717572	0.090073	0.247214	1198.931885
2700.718482	0.085865	0.247214	1277.069458
2700.719382	0.085844	0.247214	1354.328613
2700.720272	0.085814	0.247214	1430.703247
2700.721222	0.085873	0.247214	1512.282471
2700.722120	0.085752	0.247214	1589.287720
2700.723044	0.085847	0.247214	1668.610474
2700.723930	0.085763	0.247214	1744.596436
2700.724859	0.085807	0.247214	1824.311035
2700.725751	0.085741	0.247214	1900.791992
2701.733328	1.123693	0.253236	502.290619
2701.734296	0.587241	0.253236	1070.740112
2701.735208	0.088477	0.253236	1151.430786
2701.736101	0.085800	0.253236	1228.049805
2701.737040	0.085840	0.253236	1308.653442
2701.737947	0.085887	0.253236	1386.553345
2701.738848	0.085862	0.253236	1463.914795
2701.739738	0.085800	0.253236	1540.276367
2701.740686	0.085909	0.253236	1621.718506
2701.741583	0.085800	0.253236	1698.680664
2701.742490	0.085825	0.253236	1776.524170
2701.743395	0.085807	0.253236	1854.179443
2702.780150	1.130793	0.246247	542.780884
2702.781078	0.582458	0.246247	1083.302368
2702.781984	0.088480	0.246247	1163.465454
2702.782873	0.085770	0.246247	1239.715210
2702.783818	0.085865	0.246247	1320.858032
2702.784719	0.085774	0.246247	1398.140381
2702.785615	0.085814	0.246247	1475.029907
2702.786503	0.085862	0.246247	1551.275146
2702.787437	0.085876	0.246247	1631.483765
2702.788358	0.085800	0.246247	1710.505127
2702.789267	0.085858	0.246247	1788.550171
2702.790157	0.085748	0.246247	1864.866211
2703.801814	1.120898	0.250179	503.283356
2703.802719	0.674495	0.250179	1113.701050
2703.803661	0.088861	0.250179	1197.408203
2703.804567	0.085737	0.250179	1275.086182
2703.805466	0.085774	0.250179	1352.196899
2703.806354	0.085844	0.250179	1428.425903
2703.807300	0.085847	0.250179	1509.637329
2703.808205	0.085756	0.250179	1587.246216
2703.809099	0.085811	0.250179	1663.960815
2703.809984	0.085730	0.250179	1739.831787
2703.810919	0.085891	0.250179	1820.140015
2703.811818	0.085811	0.250179	1897.283691
2704.843740	1.114552	0.245643	495.975647
2704.844665	0.661007	0.245643	1107.407227
2704.845553	0.089769	0.245643	1187.122314
2704.846477	0.085858	0.245643	1266.455200
2704.847399	0.085917	0.245643	1345.670410
2704.848312	0.085785	0.245643	1423.992065
2704.849206	0.085854	0.245643	1500.745972
2704.850131	0.085876	0.245643	1580.181641
2704.851039	0.085858	0.245643	1658.140869
2704.851947	0.085778	0.245643	1736.026855
2704.852839	0.085895	0.245643	1812.645020
2704.853785	0.085986	0.245643	1893.988037
2705.872075	1.103716	0.249244	483.427521
2705.872982	0.676970	0.249244	1097.439453
2705.873939	0.088663	0.249244	1182.290283
2705.874843	0.085778	0.249244	1259.833252
2705.875739	0.085818	0.249244	1336.726074
2705.876663	0.085920	0.249244	1416.116577
2705.877557	0.085825	0.249244	1492.844360
2705.878459	0.085854	0.249244	1570.285156
2705.879348	0.085792	0.249244	1646.554443
2705.880293	0.085844	0.249244	1727.676514
2705.881185	0.085887	0.249244	1804.288086
2705.882084	0.085865	0.249244	1881.481201
2706.907094	1.122916	0.249478	499.697784
2706.908026	0.639280	0.249478	1095.506592
2706.908917	0.089487	0.249478	1175.239746
2706.909868	0.085796	0.249478	1256.831665
2706.910770	0.085829	0.249478	1334.249268
2706.911673	0.085770	0.249478	1411.699829
2706.912563	0.085818	0.249478	1488.077759
2706.913494	0.085854	0.249478	1568.008301
2706.914398	0.085822	0.249478	1645.590942
2706.915302	0.085818	0.249478	1723.170288
2706.916197	0.085803	0.249478	1799.964111
2706.917149	0.085876	0.249478	1881.718506
2707.943166	1.161083	0.247573	567.769470
2707.944094	0.573365	0.247573	1099.852539
2707.945001	0.088125	0.247573	1179.781860
2707.945892	0.085840	0.247573	1256.265137
2707.946846	0.085887	0.247573	1338.201782
2707.947751	0.085807	0.247573	1415.857056
2707.948648	0.085833	0.247573	1492.848877
2707.949575	0.085825	0.247573	1572.408813
2707.950481	0.085825	0.247573	1650.166504
2707.951390	0.085741	0.247573	1728.104980
2707.952283	0.085822	0.247573	1804.743652
2707.953208	0.085818	0.247573	1884.125244
2708.970448	1.105397	0.254421	487.479980
2708.971355	0.687616	0.254421	1111.147705
2708.972281	0.089919	0.254421	1194.413086
2708.973223	0.085752	0.254421	1275.191406
2708.974144	0.085781	0.254421	1354.195923
2708.975033	0.085796	0.254421	1430.468506
2708.975985	0.085869	0.254421	1512.215942
2708.976882	0.085876	0.254421	1589.247070
2708.977788	0.085800	0.254421	1666.981445
2708.978678	0.085781	0.254421	1743.326782
2708.979607	0.085778	0.254421	1823.014160
2708.980509	0.085829	0.254421	1900.431763
2710.013411	1.128691	0.244620	512.425903
2710.014344	0.634391	0.244620	1104.312622
2710.015234	0.089030	0.244620	1183.548950
2710.016160	0.085800	0.244620	1262.999390
2710.017070	0.085906	0.244620	1341.173584
2710.017971	0.085792	0.244620	1418.472412
2710.018864	0.085822	0.244620	1495.111084
2710.019812	0.085902	0.244620	1576.546265
2710.020709	0.085803	0.244620	1653.511719
2710.021613	0.085822	0.244620	1731.094360
2710.022498	0.085825	0.244620	1807.049683
2710.023439	0.085906	0.244620	1887.886963
2711.034572	1.101537	0.261462	481.371613
2711.035477	0.693556	0.261462	1109.039673
2711.036418	0.088989	0.261462	1192.778564
2711.037331	0.085917	0.261462	1271.220581
2711.038237	0.085818	0.261462	1348.971558
2711.039148	0.085862	0.261462	1427.191650
2711.040074	0.085862	0.261462	1506.699707
2711.040988	0.085876	0.261462	1585.190796
2711.041879	0.085759	0.261462	1661.602295
2711.042820	0.085833	0.261462	1742.370728
2711.043720	0.085869	0.261462	1819.652954
2711.044615	0.085822	0.261462	1896.463257
2712.082680	1.144944	0.245268	554.152832
2712.083605	0.594943	0.245268	1104.474854
2712.084504	0.088678	0.245268	1184.196289
2712.085391	0.085811	0.245268	1260.310303
2712.086328	0.085994	0.245268	1340.886353
2712.087218	0.085876	0.245268	1417.316406
2712.088122	0.085869	0.245268	1494.942139
2712.089026	0.085840	0.245268	1572.541382
2712.089961	0.085913	0.245268	1652.870117
2712.090872	0.085701	0.245268	1730.943481
2712.091772	0.085935	0.245268	1808.285034
2712.092707	0.085825	0.245268	1888.531616
2713.100249	1.123759	0.263420	500.072571
2713.101160	0.669745	0.263420	1110.210205
2713.102044	0.090179	0.263420	1189.928833
2713.103002	0.085968	0.263420	1272.286133
2713.103910	0.085836	0.263420	1350.225342
2713.104798	0.085876	0.263420	1426.483643
2713.105727	0.085891	0.263420	1506.276489
2713.106629	0.085920	0.263420	1583.776733
2713.107537	0.085811	0.263420	1661.692749
2713.108432	0.085862	0.263420	1738.539062
2713.109360	0.085898	0.263420	1818.252808
2713.110264	0.085844	0.263420	1895.855347
2714.149869	1.148470	0.242013	538.632629
2714.150782	0.618534	0.242013	1103.354004
2714.151713	0.088411	0.242013	1185.664307
2714.152607	0.085807	0.242013	1262.375610
2714.153555	0.085953	0.242013	1343.859375
2714.154451	0.085741	0.242013	1420.683228
2714.155338	0.085862	0.242013	1496.842651
2714.156263	0.085891	0.242013	1576.291992
2714.157178	0.085836	0.242013	1654.832153
2714.158078	0.085884	0.242013	1732.127563
2714.158967	0.085770	0.242013	1808.377319
2714.159917	0.085913	0.242013	1889.994751
2715.168216	1.127677	0.262260	511.965332
2715.169116	0.667863	0.262260	1113.041748
2715.170080	0.088733	0.262260	1198.580322
2715.170997	0.085781	0.262260	1277.241699
2715.171907	0.085770	0.262260	1355.292603
2715.172793	0.085730	0.262260	1431.249390
2715.173736	0.085818	0.262260	1512.175659
2715.174639	0.085737	0.262260	1589.596436
2715.175530	0.085792	0.262260	1666.037354
2715.176460	0.085873	0.262260	1745.899048
2715.177372	0.085785	0.262260	1824.134888
2715.178283	0.085803	0.262260	1902.301636
2716.213974	1.103536	0.238098	493.280762
2716.214881	0.677454	0.238098	1107.731201
2716.215771	0.090304	0.238098	1188.101685
2716.216729	0.085792	0.238098	1270.290649
2716.217624	0.085785	0.238098	1347.068115
2716.218552	0.085803	0.238098	1426.693481
2716.219440	0.085840	0.238098	1502.919312
2716.220382	0.085792	0.238098	1583.735596
2716.221281	0.085825	0.238098	1660.892456
2716.222173	0.085811	0.238098	1737.435425
2716.223106	0.085902	0.238098	1817.582031
2716.224010	0.085844	0.238098	1895.184570
2717.238218	1.100248	0.260242	478.607758
2717.239158	0.670873	0.260242	1109.228149
2717.240073	0.089176	0.260242	1190.824219
2717.240970	0.085800	0.260242	1267.786377
2717.241857	0.085869	0.260242	1343.952271
2717.242792	0.085884	0.260242	1424.253662
2717.243697	0.085822	0.260242	1501.922119
2717.244598	0.085844	0.260242	1579.267090
2717.245489	0.085876	0.260242	1655.782959
2717.246415	0.085858	0.260242	1735.287598
2717.247331	0.085873	0.260242	1813.947144
2717.248223	0.085873	0.260242	1890.545654
2718.275574	1.123129	0.237332	542.471130
2718.276498	0.605138	0.237332	1101.618652
2718.277392	0.088663	0.237332	1180.883667
2718.278281	0.085770	0.237332	1257.133423
2718.279213	0.085800	0.237332	1337.098633
2718.280128	0.085796	0.237332	1415.601929
2718.281029	0.085741	0.237332	1492.854492
2718.281915	0.085763	0.237332	1568.840454
2718.282862	0.085840	0.237332	1650.130737
2718.283761	0.085800	0.237332	1727.264526
2718.284648	0.085836	0.237332	1803.401245
2718.285565	0.085796	0.237332	1882.076050
2719.309778	1.117207	0.256600	494.922729
2719.310691	0.671785	0.256600	1108.262085
2719.311579	0.090084	0.256600	1188.256836
2719.312519	0.085818	0.256600	1268.925659
2719.313438	0.085774	0.256600	1347.751953
2719.314338	0.085796	0.256600	1424.968262
2719.315226	0.085825	0.256600	1501.181030
2719.316168	0.085789	0.256600	1581.993896
2719.317067	0.085767	0.256600	1659.098022
2719.317957	0.085858	0.256600	1735.511719
2719.318886	0.085796	0.256600	1815.216064
2719.319805	0.085767	0.256600	1894.035522
2720.337611	1.104221	0.239991	486.961548
2720.338504	0.692435	0.239991	1105.306152
2720.339469	0.088861	0.239991	1191.057129
2720.340363	0.085785	0.239991	1267.748779
2720.341253	0.085778	0.239991	1344.090820
2720.342191	0.085825	0.239991	1424.594849
2720.343104	0.085844	0.239991	1502.969971
2720.344008	0.085825	0.239991	1580.555908
2720.344902	0.085792	0.239991	1657.254150
2720.345847	0.085858	0.239991	1738.390137
2720.346746	0.085807	0.239991	1815.530518
2720.347647	0.085858	0.239991	1892.888672
2721.381322	1.111780	0.253546	486.959564
2721.382300	0.584762	0.253546	1058.856689
2721.383214	0.088407	0.253546	1139.660645
2721.384109	0.085803	0.253546	1216.454590
2721.385037	0.085869	0.253546	1296.141113
2721.385933	0.085873	0.253546	1373.083130
2721.386836	0.085770	0.253546	1450.533691
2721.387726	0.085836	0.253546	1526.927856
2721.388654	0.085873	0.253546	1606.617798
2721.389560	0.085833	0.253546	1684.382080
2721.390466	0.085865	0.253546	1762.176147
2721.391351	0.085880	0.253546	1838.180054
2722.400718	1.100354	0.244587	479.754333
2722.401670	0.637119	0.244587	1086.291748
2722.402570	0.089070	0.244587	1166.454590
2722.403465	0.085833	0.244587	1243.274658
2722.404349	0.085767	0.244587	1319.092285
2722.405286	0.085920	0.244587	1399.599731
2722.406186	0.085822	0.244587	1476.839111
2722.407094	0.085858	0.244587	1554.798340
2722.408009	0.085869	0.244587	1633.368652
2722.408932	0.085851	0.244587	1712.609009
2722.409840	0.085789	0.244587	1790.505005
2722.410740	0.085800	0.244587	1867.724609
2723.452388	1.137169	0.252499	519.686279
2723.453299	0.656642	0.252499	1117.886963
2723.454189	0.089707	0.252499	1197.726196
2723.455118	0.085748	0.252499	1277.386353
2723.456026	0.085723	0.252499	1355.222534
2723.456923	0.085840	0.252499	1432.220825
2723.457813	0.085807	0.252499	1508.588989
2723.458749	0.085818	0.252499	1588.914551
2723.459665	0.085697	0.252499	1667.412964
2723.460564	0.085833	0.252499	1744.576416
2723.461452	0.085730	0.252499	1820.704590
2723.462404	0.085774	0.252499	1902.361328
2724.464841	1.118405	0.249180	489.861176
2724.465808	0.596572	0.249180	1066.746582
2724.466710	0.088696	0.249180	1146.750610
2724.467601	0.085767	0.249180	1223.168701
2724.468545	0.085873	0.249180	1304.232666
2724.469454	0.085726	0.249180	1382.157837
2724.470348	0.085840	0.249180	1458.898682
2724.471241	0.085858	0.249180	1535.570068
2724.472183	0.085869	0.249180	1616.458740
2724.473096	0.085789	0.249180	1694.783691
2724.474002	0.085851	0.249180	1772.564575
2724.474894	0.085781	0.249180	1849.081421
2725.522393	1.121730	0.255190	500.291473
2725.523293	0.683273	0.255190	1115.236938
2725.524179	0.090428	0.255190	1195.356567
2725.525138	0.085865	0.255190	1277.701538
2725.526042	0.085712	0.255190	1355.184937
2725.526941	0.085796	0.255190	1432.315430
2725.527870	0.085818	0.255190	1512.040283
2725.528774	0.085880	0.255190	1589.675903
2725.529678	0.085814	0.255190	1667.251953
2725.530569	0.085789	0.255190	1743.689575
2725.531521	0.085887	0.255190	1825.454468
2725.532422	0.085833	0.255190	1902.789551
2726.529994	1.100464	0.253571	482.003174
2726.530971	0.611565	0.253571	1079.502197
2726.531892	0.088092	0.253571	1160.635010
2726.532783	0.085836	0.253571	1237.114990
2726.533695	0.085763	0.253571	1315.330811
2726.534635	0.085844	0.253571	1396.023682
2726.535568	0.085858	0.253571	1476.129395
2726.536458	0.085792	0.253571	1552.484497
2726.537374	0.085818	0.253571	1631.093628
2726.538314	0.085844	0.253571	1711.786499
2726.539219	0.085833	0.253571	1789.464966
2726.540121	0.085836	0.253571	1866.889160
2727.590090	1.105737	0.254316	485.418640
2727.591062	0.604116	0.254316	1072.619629
2727.591990	0.087898	0.254316	1154.188965
2727.592893	0.085818	0.254316	1231.682495
2727.593809	0.085756	0.254316	1310.234619
2727.594746	0.085796	0.254316	1390.625366
2727.595662	0.085803	0.254316	1469.221069
2727.596554	0.085781	0.254316	1545.737915
2727.597490	0.085862	0.254316	1626.104614
2727.598419	0.085723	0.254316	1705.740967
2727.599336	0.085763	0.254316	1784.385620
2727.600227	0.085741	0.254316	1860.780762
2728.596733	1.123154	0.251210	539.114075
2728.597670	0.592848	0.251210	1094.612549
2728.598589	0.088085	0.251210	1175.562378
2728.599477	0.085763	0.251210	1251.719849
2728.600409	0.085759	0.251210	1331.647461
2728.601335	0.085792	0.251210	1411.091064
2728.602257	0.085811	0.251210	1490.208374
2728.603153	0.085785	0.251210	1567.071655
2728.604092	0.085792	0.251210	1647.630615
2728.605029	0.085763	0.251210	1727.990479
2728.605929	0.085737	0.251210	1805.154053
2728.606857	0.085730	0.251210	1884.711426
2729.657075	1.113853	0.252737	525.738403
2729.657985	0.629561	0.252737	1098.638550
2729.658874	0.089348	0.252737	1178.069092
2729.659822	0.085723	0.252737	1259.334229
2729.660754	0.085756	0.252737	1339.258423
2729.661673	0.085792	0.252737	1418.101440
2729.662562	0.085756	0.252737	1494.338135
2729.663515	0.085748	0.252737	1576.056274
2729.664447	0.085741	0.252737	1655.966797
2729.665342	0.085825	0.252737	1732.780396
2729.666271	0.085789	0.252737	1812.478027
2729.667204	0.085770	0.252737	1892.501709
2730.663427	1.169315	0.251295	571.795105
2730.664355	0.565038	0.251295	1096.150146
2730.665252	0.088275	0.251295	1175.333008
2730.666176	0.085759	0.251295	1254.574585
2730.667120	0.085917	0.251295	1335.680054
2730.668026	0.085909	0.251295	1413.514038
2730.668911	0.085789	0.251295	1489.436890
2730.669861	0.085917	0.251295	1571.057861
2730.670797	0.085836	0.251295	1651.400513
2730.671693	0.085854	0.251295	1728.326172
2730.672616	0.085854	0.251295	1807.569824
2730.673548	0.085803	0.251295	1887.538452
2731.723749	1.142809	0.253148	532.548889
2731.724661	0.637020	0.253148	1113.511353
2731.725561	0.089458	0.253148	1194.023560
2731.726513	0.085767	0.253148	1275.673340
2731.727449	0.085847	0.253148	1356.026245
2731.728350	0.085800	0.253148	1433.331665
2731.729281	0.085865	0.253148	1513.272461
2731.730220	0.085833	0.253148	1593.869141
2731.731136	0.085847	0.253148	1672.505127
2731.732022	0.085869	0.253148	1748.585205
2731.732950	0.085734	0.253148	1828.145996
2731.733885	0.085785	0.253148	1908.354858
2732.730316	1.106019	0.250030	488.860504
2732.731213	0.692388	0.250030	1109.932251
2732.732179	0.088521	0.250030	1195.443115
2732.733089	0.085814	0.250030	1273.534058
2732.734009	0.085847	0.250030	1352.513428
2732.734897	0.085792	0.250030	1428.696899
2732.735866	0.085825	0.250030	1511.861572
2732.736798	0.085796	0.250030	1591.823364
2732.737693	0.085873	0.250030	1668.679565
2732.738649	0.085854	0.250030	1750.756470
2732.739566	0.085840	0.250030	1829.471558
2732.740476	0.085862	0.250030	1907.605835
2733.789648	1.111003	0.250352	493.285522
2733.790551	0.686169	0.250352	1112.896484
2733.791448	0.090480	0.250352	1194.056763
2733.792405	0.085745	0.250352	1276.114380
2733.793324	0.085756	0.250352	1354.923828
2733.794214	0.085763	0.250352	1431.252808
2733.795155	0.085789	0.250352	1511.979858
2733.796052	0.085730	0.250352	1588.879639
2733.796966	0.085770	0.250352	1667.273682
2733.797861	0.085829	0.250352	1744.090576
2733.798808	0.085770	0.250352	1825.315063
2733.799714	0.085767	0.250352	1903.019653
2734.797512	1.114098	0.249023	487.974915
2734.798502	0.582074	0.249023	1064.228149
2734.799396	0.088191	0.249023	1143.070801
2734.800287	0.085781	0.249023	1219.501953
2734.801227	0.085803	0.249023	1300.156982
2734.802141	0.085833	0.249023	1378.607910
2734.803057	0.085737	0.249023	1457.143311
2734.803950	0.085811	0.249023	1533.772095
2734.804896	0.085880	0.249023	1615.014648
2734.805799	0.085785	0.249023	1692.478394
2734.806719	0.085836	0.249023	1771.447632
2734.807607	0.085829	0.249023	1847.663696
2735.856118	1.144958	0.247826	550.725037
2735.857020	0.623038	0.247826	1112.705566
2735.857959	0.088634	0.247826	1195.932861
2735.858864	0.085767	0.247826	1273.551636
2735.859778	0.085730	0.247826	1351.908813
2735.860664	0.085774	0.247826	1427.904541
2735.861618	0.085789	0.247826	1509.746826
2735.862521	0.085767	0.247826	1587.194092
2735.863410	0.085789	0.247826	1663.460083
2735.864346	0.085822	0.247826	1743.789062
2735.865256	0.085792	0.247826	1821.859985
2735.866149	0.085800	0.247826	1898.479004
2736.864470	1.112908	0.248926	489.679352
2736.865374	0.687623	0.248926	1111.290894
2736.866265	0.090293	0.248926	1191.741943
2736.867201	0.085796	0.248926	1272.046875
2736.868123	0.085825	0.248926	1351.177734
2736.869024	0.085759	0.248926	1428.446777
2736.869914	0.085822	0.248926	1504.827881
2736.870852	0.085829	0.248926	1585.335327
2736.871762	0.085767	0.248926	1663.382935
2736.872658	0.085803	0.248926	1740.262573
2736.873542	0.085825	0.248926	1816.132080
2736.874481	0.085822	0.248926	1896.718506
2737.922507	1.103529	0.246034	485.552795
2737.923404	0.689502	0.246034	1104.036011
2737.924361	0.088942	0.246034	1189.153198
2737.925258	0.085774	0.246034	1266.092407
2737.926149	0.085811	0.246034	1342.549561
2737.927075	0.085803	0.246034	1422.003296
2737.927982	0.085887	0.246034	1499.903198
2737.928886	0.085811	0.246034	1577.475952
2737.929779	0.085803	0.246034	1654.098267
2737.930723	0.085803	0.246034	1735.096558
2737.931633	0.085770	0.246034	1813.147461
2737.932536	0.085822	0.246034	1890.644287
2738.931152	1.109619	0.248064	489.342041
2738.932067	0.671353	0.248064	1103.629639
2738.932958	0.089952	0.248064	1183.777222
2738.933895	0.085759	0.248064	1264.133667
2738.934804	0.085730	0.248064	1342.062256
2738.935700	0.085759	0.248064	1418.902588
2738.936587	0.085734	0.248064	1494.948364
2738.937525	0.085825	0.248064	1575.452393
2738.938424	0.085726	0.248064	1652.520386
2738.939314	0.085730	0.248064	1728.820068
2738.940249	0.085803	0.248064	1809.046143
2738.941168	0.085807	0.248064	1887.902710
2739.990236	1.117419	0.245595	499.486511
2739.991165	0.650457	0.245595	1103.760620
2739.992056	0.089355	0.245595	1183.376343
2739.992975	0.085726	0.245595	1262.158813
2739.993893	0.085800	0.245595	1340.922852
2739.994796	0.085770	0.245595	1418.373413
2739.995695	0.085833	0.245595	1495.536865
2739.996622	0.085946	0.245595	1575.208862
2739.997521	0.085887	0.245595	1652.421631
2739.998425	0.085851	0.245595	1730.030762
2739.999315	0.085825	0.245595	1806.415161
2740.000254	0.085891	0.245595	1887.066895
2740.997587	1.110469	0.247166	491.937653
2740.998490	0.691798	0.247166	1116.631348
2740.999375	0.090557	0.247166	1196.773926
2741.000330	0.085796	0.247166	1278.708984
2741.001241	0.085811	0.247166	1356.882324
2741.002138	0.085803	0.247166	1433.847778
2741.003064	0.085792	0.247166	1513.291382
2741.003970	0.085800	0.247166	1591.025757
2741.004874	0.085774	0.247166	1668.565430
2741.005765	0.085814	0.247166	1745.025879
2741.006711	0.085825	0.247166	1826.216553
2741.007607	0.085844	0.247166	1903.132324
2742.057682	1.112120	0.245357	496.005707
2742.058586	0.679438	0.245357	1110.218140
2742.059522	0.090026	0.245357	1194.482178
2742.060426	0.085734	0.245357	1271.985352
2742.061332	0.085778	0.245357	1349.699829
2742.062224	0.085748	0.245357	1426.187256
2742.063169	0.085785	0.245357	1507.254028
2742.064065	0.085844	0.245357	1584.169800
2742.064969	0.085789	0.245357	1661.722656
2742.065859	0.085748	0.245357	1738.038574
2742.066817	0.085803	0.245357	1820.238037
2742.067721	0.085741	0.245357	1897.747803
2743.064262	1.098874	0.243725	478.010376
2743.065160	0.694709	0.243725	1101.859497
2743.066130	0.088942	0.243725	1188.132935
2743.067069	0.085756	0.243725	1268.657471
2743.067971	0.085807	0.243725	1346.055298
2743.068887	0.085704	0.243725	1424.560425
2743.069828	0.085785	0.243725	1505.284058
2743.070743	0.085715	0.243725	1583.713623
2743.071635	0.085800	0.243725	1660.246826
2743.072582	0.085774	0.243725	1741.474731
2743.073499	0.085796	0.243725	1820.149536
2743.074403	0.085822	0.243725	1897.732178
2744.125130	1.109070	0.243677	486.881653
2744.126091	0.603464	0.243677	1066.810913
2744.127021	0.088048	0.243677	1148.695679
2744.127915	0.085756	0.243677	1225.361206
2744.128835	0.085701	0.243677	1304.205811
2744.129771	0.085781	0.243677	1384.497070
2744.130683	0.085807	0.243677	1462.752930
2744.131573	0.085811	0.243677	1539.124268
2744.132524	0.085745	0.243677	1620.667358
2744.133456	0.085734	0.243677	1700.571167
2744.134355	0.085858	0.243677	1777.757690
2744.135281	0.085763	0.243677	1857.174194
2745.130966	1.117258	0.242896	500.531738
2745.131869	0.678662	0.242896	1113.363647
2745.132836	0.089136	0.242896	1199.557861
2745.133738	0.085785	0.242896	1276.935791
2745.134644	0.085745	0.242896	1354.620361
2745.135532	0.085693	0.242896	1430.716064
2745.136471	0.085876	0.242896	1511.354004
2745.137376	0.085789	0.242896	1588.992676
2745.138273	0.085693	0.242896	1665.859619
2745.139207	0.085774	0.242896	1745.972412
2745.140115	0.085818	0.242896	1823.895020
2745.141023	0.085741	0.242896	1901.747803
2746.192072	1.107100	0.244298	483.802551
2746.193045	0.581766	0.244298	1049.861206
2746.193961	0.088352	0.244298	1130.791748
2746.194859	0.085763	0.244298	1207.806885
2746.195789	0.085781	0.244298	1287.583496
2746.196704	0.085836	0.244298	1366.123657
2746.197601	0.085803	0.244298	1443.089111
2746.198493	0.085825	0.244298	1519.645142
2746.199438	0.085884	0.244298	1600.805298
2746.200340	0.085803	0.244298	1678.199829
2746.201242	0.085770	0.244298	1755.564575
2746.202127	0.085811	0.244298	1831.506958
2747.198461	1.145903	0.242138	563.784424
2747.199391	0.566536	0.242138	1090.662598
2747.200312	0.087843	0.242138	1171.566040
2747.201215	0.085807	0.242138	1249.049683
2747.202159	0.085774	0.242138	1330.020264
2747.203097	0.085865	0.242138	1410.562134
2747.203996	0.085807	0.242138	1487.702515
2747.204913	0.085800	0.242138	1566.380737
2747.205846	0.085752	0.242138	1646.387329
2747.206762	0.085825	0.242138	1725.003174
2747.207649	0.085814	0.242138	1801.120361
2747.208591	0.085789	0.242138	1881.933228
2748.257497	1.116200	0.246795	496.708984
2748.258390	0.691172	0.246795	1113.925537
2748.259342	0.088986	0.246795	1198.639893
2748.260248	0.085822	0.246795	1276.394165
2748.261146	0.085752	0.246795	1353.399414
2748.262041	0.085778	0.246795	1430.170410
2748.262986	0.085869	0.246795	1511.316772
2748.263895	0.085785	0.246795	1589.295288
2748.264795	0.085847	0.246795	1666.557739
2748.265722	0.085803	0.246795	1746.097290
2748.266630	0.085851	0.246795	1824.049805
2748.267532	0.085807	0.246795	1901.447632
2749.267146	1.103665	0.238940	482.301392
2749.268082	0.678842	0.238940	1117.697021
2749.269035	0.088389	0.238940	1201.931396
2749.269953	0.085909	0.238940	1280.796265
2749.270848	0.085818	0.238940	1357.603271
2749.271798	0.085829	0.238940	1439.140747
2749.272733	0.085774	0.238940	1519.339355
2749.273658	0.085847	0.238940	1598.748047
2749.274548	0.085730	0.238940	1675.047729
2749.275485	0.085792	0.238940	1755.435059
2749.276415	0.085785	0.238940	1835.215088
2749.277319	0.085898	0.238940	1912.867310
2750.321899	1.119108	0.250493	518.146851
2750.322817	0.638364	0.250493	1104.165283
2750.323708	0.089238	0.250493	1183.676636
2750.324628	0.085734	0.250493	1262.551636
2750.325567	0.085693	0.250493	1343.017700
2750.326482	0.085701	0.250493	1421.433838
2750.327374	0.085781	0.250493	1497.950684
2750.328320	0.085778	0.250493	1579.096313
2750.329243	0.085825	0.250493	1658.312988
2750.330152	0.085792	0.250493	1736.298096
2750.331051	0.085734	0.250493	1813.372681
2750.332000	0.085719	0.250493	1894.719971
2751.337457	1.119393	0.235983	535.070007
2751.338418	0.559882	0.235983	1073.116211
2751.339344	0.087426	0.235983	1154.072266
2751.340244	0.085741	0.235983	1231.239136
2751.341184	0.085756	0.235983	1311.849365
2751.342124	0.085686	0.235983	1392.394287
2751.343045	0.085803	0.235983	1471.419067
2751.343930	0.085719	0.235983	1547.280396
2751.344878	0.085778	0.235983	1628.597534
2751.345808	0.085726	0.235983	1708.322998
2751.346703	0.085785	0.235983	1785.100464
2751.347626	0.085796	0.235983	1864.290039
2752.385272	1.156450	0.253196	556.252502
2752.386186	0.612960	0.253196	1116.498047
2752.387077	0.088949	0.253196	1195.751587
2752.388022	0.085734	0.253196	1276.769897
2752.388963	0.085792	0.253196	1357.500366
2752.389861	0.085814	0.253196	1434.561523
2752.390782	0.085745	0.253196	1513.532349
2752.391713	0.085671	0.253196	1593.292358
2752.392645	0.085752	0.253196	1673.213135
2752.393544	0.085745	0.253196	1750.297607
2752.394465	0.085785	0.253196	1829.305542
2752.395407	0.085741	0.253196	1910.073486
2753.408972	1.099552	0.234110	481.603790
2753.409867	0.701005	0.234110	1109.002930
2753.410843	0.089147	0.234110	1196.010132
2753.411774	0.085800	0.234110	1275.889526
2753.412692	0.085807	0.234110	1354.660278
2753.413584	0.085781	0.234110	1431.177124
2753.414519	0.085730	0.234110	1511.334717
2753.415449	0.085778	0.234110	1591.107910
2753.416345	0.085836	0.234110	1668.017090
2753.417264	0.085778	0.234110	1746.846680
2753.418197	0.085697	0.234110	1826.802002
2753.419119	0.085822	0.234110	1905.929443
2754.447600	1.115772	0.255601	525.528381
2754.448550	0.575896	0.255601	1072.629639
2754.449442	0.088323	0.255601	1151.413574
2754.450370	0.085686	0.255601	1230.930176
2754.451312	0.085778	0.255601	1311.732666
2754.452233	0.085789	0.255601	1390.743896
2754.453123	0.085825	0.255601	1467.128296
2754.454059	0.085741	0.255601	1547.381836
2754.454990	0.085807	0.255601	1627.268066
2754.455903	0.085822	0.255601	1705.623169
2754.456790	0.085847	0.255601	1781.769653
2754.457742	0.085800	0.255601	1863.450806
2755.480304	1.126824	0.231806	539.748596
2755.481262	0.563123	0.231806	1079.219971
2755.482179	0.087631	0.231806	1159.577271
2755.483074	0.085836	0.231806	1236.400635
2755.484021	0.085800	0.231806	1317.652832
2755.484952	0.085847	0.231806	1397.576538
2755.485851	0.085825	0.231806	1474.733398
2755.486774	0.085862	0.231806	1553.983887
2755.487705	0.085767	0.231806	1633.832642
2755.488635	0.085818	0.231806	1713.643311
2755.489524	0.085833	0.231806	1789.948364
2755.490446	0.085789	0.231806	1869.045410
2756.509906	1.123462	0.258042	502.187500
2756.510889	0.549342	0.258042	1042.190674
2756.511813	0.087572	0.258042	1123.107178
2756.512700	0.085833	0.258042	1199.240601
2756.513619	0.085785	0.258042	1278.076904
2756.514555	0.085748	0.258042	1358.337280
2756.515465	0.085778	0.258042	1436.394897
2756.516351	0.085847	0.258042	1512.455444
2756.517289	0.085807	0.258042	1592.942261
2756.518220	0.085778	0.258042	1672.801147
2756.519113	0.085825	0.258042	1749.442993
2756.520031	0.085807	0.258042	1828.213745
2757.551610	1.128479	0.230287	539.412964
2757.552509	0.630963	0.230287	1106.648804
2757.553435	0.089191	0.230287	1189.239380
2757.554380	0.085792	0.230287	1270.312988
2757.555304	0.085811	0.230287	1349.601929
2757.556197	0.085840	0.230287	1426.256958
2757.557141	0.085800	0.230287	1507.251709
2757.558073	0.085822	0.230287	1587.237427
2757.558967	0.085876	0.230287	1664.010986
2757.559886	0.085792	0.230287	1742.854004
2757.560820	0.085734	0.230287	1822.929199
2757.561754	0.085836	0.230287	1903.100220
2758.573817	1.131819	0.258066	536.482178
2758.574752	0.589167	0.258066	1087.353760
2758.575651	0.088315	0.258066	1166.749268
2758.576572	0.085814	0.258066	1245.784180
2758.577506	0.085789	0.258066	1325.910645
2758.578421	0.085789	0.258066	1404.407227
2758.579309	0.085774	0.258066	1480.574463
2758.580262	0.085781	0.258066	1562.323975
2758.581198	0.085752	0.258066	1642.587769
2758.582118	0.085781	0.258066	1721.506470
2758.583008	0.085778	0.258066	1797.848511
2758.583932	0.085774	0.258066	1877.103638
2759.621101	1.134562	0.232680	528.705811
2759.622028	0.609591	0.232680	1093.796753
2759.622920	0.088879	0.232680	1173.077148
2759.623852	0.085734	0.232680	1252.980957
2759.624788	0.085723	0.232680	1333.217407
2759.625715	0.085715	0.232680	1412.675537
2759.626609	0.085814	0.232680	1489.393433
2759.627548	0.085811	0.232680	1569.969482
2759.628448	0.085931	0.232680	1647.307739
2759.629357	0.085818	0.232680	1725.316162
2759.630255	0.085854	0.232680	1802.413452
2759.631194	0.085803	0.232680	1882.982666
2760.638670	1.107275	0.257079	487.201172
2760.639571	0.697632	0.257079	1115.767456
2760.640465	0.090487	0.257079	1196.662842
2760.641419	0.085701	0.257079	1278.421265
2760.642311	0.085745	0.257079	1354.905518
2760.643212	0.085774	0.257079	1432.187866
2760.644100	0.085818	0.257079	1508.394165
2760.645035	0.085880	0.257079	1588.692139
2760.645947	0.085719	0.257079	1666.867920
2760.646842	0.085770	0.257079	1743.632324
2760.647768	0.085785	0.257079	1823.069092
2760.648674	0.085756	0.257079	1900.763672
2761.689048	1.117145	0.235484	498.246582
2761.689956	0.667471	0.235484	1104.310059
2761.690899	0.089905	0.235484	1189.090332
2761.691800	0.085759	0.235484	1266.359375
2761.692694	0.085778	0.235484	1343.044556
2761.693579	0.085741	0.235484	1418.925293
2761.694514	0.085814	0.235484	1499.161621
2761.695417	0.085906	0.235484	1576.734497
2761.696318	0.085778	0.235484	1654.020142
2761.697205	0.085748	0.235484	1730.078857
2761.698151	0.085887	0.235484	1811.328369
2761.699053	0.085811	0.235484	1888.729492
2762.705879	1.120873	0.256100	502.151031
2762.706780	0.682591	0.256100	1117.166016
2762.707713	0.089407	0.256100	1200.582520
2762.708616	0.085748	0.256100	1278.013184
2762.709518	0.085741	0.256100	1355.351562
2762.710407	0.085829	0.256100	1431.653442
2762.711349	0.085704	0.256100	1512.386963
2762.712253	0.085734	0.256100	1589.890137
2762.713149	0.085781	0.256100	1666.750122
2762.714081	0.085748	0.256100	1746.667480
2762.714986	0.085836	0.256100	1824.349243
2762.715893	0.085690	0.256100	1902.069824
2763.755220	1.117573	0.241063	498.437683
2763.756124	0.681314	0.241063	1114.345093
2763.757012	0.090300	0.241063	1194.531738
2763.757972	0.085778	0.241063	1276.878174
2763.758878	0.085759	0.241063	1354.576050
2763.759770	0.085862	0.241063	1431.164795
2763.760711	0.085950	0.241063	1512.043457
2763.761608	0.085898	0.241063	1589.094360
2763.762509	0.085759	0.241063	1666.363525
2763.763399	0.085763	0.241063	1742.692505
2763.764339	0.085792	0.241063	1823.337158
2763.765247	0.085811	0.241063	1901.253174
2764.774360	1.114644	0.254852	494.901733
2764.775280	0.665500	0.254852	1107.162109
2764.776178	0.089729	0.254852	1187.738770
2764.777078	0.085792	0.254852	1264.951782
2764.778002	0.085785	0.254852	1344.217041
2764.778911	0.085792	0.254852	1422.202148
2764.779804	0.085774	0.254852	1498.798218
2764.780729	0.085803	0.254852	1578.166260
2764.781638	0.085909	0.254852	1656.257935
2764.782541	0.085829	0.254852	1733.761353
2764.783430	0.085778	0.254852	1810.017578
2764.784378	0.085825	0.254852	1891.379883
2765.819855	1.100607	0.246795	484.266937
2765.820820	0.606533	0.246795	1069.571411
2765.821721	0.088755	0.246795	1149.539551
2765.822616	0.085752	0.246795	1226.287598
2765.823507	0.085829	0.246795	1302.761108
2765.824450	0.085873	0.246795	1383.739136
2765.825356	0.085847	0.246795	1461.516724
2765.826258	0.085807	0.246795	1538.914551
2765.827193	0.085869	0.246795	1619.202148
2765.828093	0.085924	0.246795	1696.533813
2765.828992	0.085792	0.246795	1773.661011
2765.829880	0.085767	0.246795	1849.821777
2766.843903	1.156611	0.252793	570.209412
2766.844832	0.568385	0.252793	1098.239014
2766.845741	0.088099	0.252793	1178.321289
2766.846629	0.085887	0.252793	1254.589355
2766.847570	0.085913	0.252793	1335.433594
2766.848478	0.085829	0.252793	1413.366211
2766.849378	0.085862	0.252793	1490.641846
2766.850302	0.085840	0.252793	1569.957886
2766.851214	0.085873	0.252793	1648.273926
2766.852123	0.085763	0.252793	1726.232422
2766.853014	0.085723	0.252793	1802.611328
2766.853905	0.085759	0.252793	1879.022827
2767.884558	1.142179	0.248559	579.084778
2767.885463	0.587292	0.248559	1110.584473
2767.886381	0.088052	0.248559	1191.416016
2767.887280	0.085789	0.248559	1268.539917
2767.888220	0.085818	0.248559	1349.208740
2767.889127	0.085833	0.248559	1427.058838
2767.890044	0.085829	0.248559	1505.763916
2767.890931	0.085829	0.248559	1581.894165
2767.891879	0.085789	0.248559	1663.221680
2767.892771	0.085844	0.248559	1739.794067
2767.893660	0.085862	0.248559	1816.125244
2767.894595	0.085800	0.248559	1896.347778
2768.913115	1.114563	0.250070	501.553345
2768.914010	0.685173	0.250070	1114.783447
2768.914953	0.089861	0.250070	1199.522217
2768.915855	0.085803	0.250070	1276.916748
2768.916764	0.085811	0.250070	1354.918579
2768.917658	0.085781	0.250070	1431.607056
2768.918630	0.085865	0.250070	1515.068359
2768.919532	0.085796	0.250070	1592.456299
2768.920449	0.085763	0.250070	1671.100952
2768.921341	0.085781	0.250070	1747.617798
2768.922293	0.085759	0.250070	1829.260620
2768.923209	0.085712	0.250070	1907.772461
2769.949158	1.140278	0.247701	525.668335
2769.950085	0.611664	0.247701	1092.680664
2769.951007	0.088378	0.247701	1174.164917
2769.951895	0.085836	0.247701	1250.387451
2769.952845	0.085781	0.247701	1331.879639
2769.953777	0.085847	0.247701	1411.889160
2769.954674	0.085895	0.247701	1488.936768
2769.955597	0.085807	0.247701	1568.136475
2769.956528	0.085862	0.247701	1648.073853
2769.957442	0.085869	0.247701	1726.558228
2769.958340	0.085822	0.247701	1803.625977
2769.959285	0.085708	0.247701	1884.619995
2770.982635	1.118573	0.247440	522.373596
2770.983575	0.598982	0.247440	1085.416626
2770.984467	0.088521	0.247440	1164.376953
2770.985388	0.085723	0.247440	1243.327515
2770.986314	0.085701	0.247440	1322.686401
2770.987229	0.085752	0.247440	1401.149414
2770.988116	0.085862	0.247440	1477.308838
2770.989049	0.085770	0.247440	1557.332520
2770.989991	0.085734	0.247440	1638.093628
2770.990891	0.085756	0.247440	1715.273682
2770.991807	0.085715	0.247440	1793.788940
2770.992750	0.085756	0.247440	1874.656494
2772.014277	1.094019	0.246670	472.616028
2772.015206	0.695186	0.246670	1118.443359
2772.016136	0.088696	0.246670	1200.930908
2772.017075	0.085829	0.246670	1281.524170
2772.017972	0.085825	0.246670	1358.509399
2772.018903	0.085789	0.246670	1438.378540
2772.019843	0.085906	0.246670	1519.130005
2772.020765	0.085858	0.246670	1598.291260
2772.021657	0.085873	0.246670	1674.889771
2772.022586	0.085935	0.246670	1754.723389
2772.023524	0.085767	0.246670	1835.172485
2772.024444	0.085822	0.246670	1914.128296
2773.051076	1.096945	0.245764	476.073944
2773.052018	0.665361	0.245764	1102.844360
2773.052969	0.088392	0.245764	1186.905518
2773.053888	0.085807	0.245764	1265.762085
2773.054783	0.085792	0.245764	1342.546143
2773.055712	0.085734	0.245764	1422.192749
2773.056636	0.085756	0.245764	1501.430908
2773.057559	0.085822	0.245764	1580.644165
2773.058452	0.085778	0.245764	1657.243530
2773.059400	0.085759	0.245764	1738.543335
2773.060335	0.085811	0.245764	1818.776245
2773.061228	0.085770	0.245764	1895.369141
2774.080461	1.107832	0.245627	489.661713
2774.081353	0.702960	0.245627	1116.702148
2774.082303	0.089487	0.245627	1201.715088
2774.083236	0.085770	0.245627	1281.738770
2774.084139	0.085898	0.245627	1359.305054
2774.085057	0.085836	0.245627	1438.102661
2774.085991	0.085781	0.245627	1518.222412
2774.086923	0.085822	0.245627	1598.208130
2774.087840	0.085803	0.245627	1676.889648
2774.088731	0.085803	0.245627	1753.340332
2774.089667	0.085825	0.245627	1833.672729
2774.090607	0.085800	0.245627	1914.324341
2775.118570	1.153997	0.245341	540.070374
2775.119525	0.560577	0.245341	1075.421875
2775.120450	0.087708	0.245341	1156.551270
2775.121339	0.085811	0.245341	1232.836792
2775.122288	0.085836	0.245341	1314.295288
2775.123227	0.085811	0.245341	1394.871338
2775.124148	0.085785	0.245341	1473.879272
2775.125035	0.085741	0.245341	1549.931519
2775.125979	0.085719	0.245341	1630.850220
2775.126915	0.085741	0.245341	1711.103760
2775.127816	0.085880	0.245341	1788.481689
2775.128738	0.085800	0.245341	1867.588867
2776.147148	1.097384	0.245313	477.362091
2776.148042	0.696273	0.245313	1099.830322
2776.149016	0.088744	0.245313	1186.266846
2776.149939	0.085800	0.245313	1265.459839
2776.150828	0.085840	0.245313	1341.771484
2776.151762	0.085822	0.245313	1421.928833
2776.152692	0.085778	0.245313	1501.702026
2776.153611	0.085884	0.245313	1580.629272
2776.154504	0.085781	0.245313	1657.231934
2776.155438	0.085712	0.245313	1737.286621
2776.156373	0.085800	0.245313	1817.509155
2776.157272	0.085898	0.245313	1894.731812
2777.185533	1.152927	0.243165	558.016785
2777.186476	0.559955	0.243165	1086.054199
2777.187365	0.088184	0.243165	1164.449463
2777.188296	0.085748	0.243165	1244.281128
2777.189234	0.085712	0.243165	1324.678711
2777.190160	0.085785	0.243165	1404.115479
2777.191047	0.085752	0.243165	1480.177490
2777.191991	0.085778	0.243165	1561.151489
2777.192930	0.085778	0.243165	1641.696655
2777.193831	0.085814	0.243165	1719.015259
2777.194747	0.085792	0.243165	1797.600952
2777.195687	0.085833	0.243165	1878.283569
2778.214373	1.117244	0.243266	521.752808
2778.215331	0.570839	0.243266	1068.616211
2778.216275	0.087480	0.243266	1151.197754
2778.217174	0.085822	0.243266	1228.351318
2778.218092	0.085752	0.243266	1307.071655
2778.219029	0.085759	0.243266	1387.428101
2778.219956	0.085833	0.243266	1466.994873
2778.220853	0.085763	0.243266	1543.924194
2778.221779	0.085829	0.243266	1623.401733
2778.222722	0.085785	0.243266	1704.296875
2778.223634	0.085876	0.243266	1782.616211
2778.224521	0.085770	0.243266	1858.694458
2779.250889	1.113373	0.243991	486.543915
2779.251878	0.553019	0.243991	1033.479492
2779.252804	0.087579	0.243991	1114.578003
2779.253696	0.085789	0.243991	1191.101440
2779.254615	0.085752	0.243991	1269.907471
2779.255557	0.085792	0.243991	1350.723755
2779.256481	0.085734	0.243991	1429.941650
2779.257383	0.085781	0.243991	1507.316284
2779.258302	0.085829	0.243991	1586.192993
2779.259248	0.085792	0.243991	1667.352417
2779.260167	0.085840	0.243991	1746.239258
2779.261051	0.085737	0.243991	1822.031006
2780.282352	1.136701	0.242618	534.249268
2780.283268	0.621658	0.242618	1103.687744
2780.284158	0.089139	0.242618	1183.021851
2780.285118	0.085708	0.242618	1265.301514
2780.286051	0.085734	0.242618	1345.291016
2780.286950	0.085774	0.242618	1422.401733
2780.287873	0.085741	0.242618	1501.540649
2780.288794	0.085745	0.242618	1580.511475
2780.289708	0.085734	0.242618	1658.872070
2780.290598	0.085836	0.242618	1735.266235
2780.291530	0.085759	0.242618	1815.193848
2780.292470	0.085693	0.242618	1895.745605
2781.316054	1.110249	0.243443	489.619843
2781.316959	0.682661	0.243443	1107.428223
2781.317883	0.089861	0.243443	1190.459595
2781.318826	0.085807	0.243443	1271.375488
2781.319740	0.085763	0.243443	1349.762817
2781.320629	0.085781	0.243443	1426.022339
2781.321573	0.085704	0.243443	1506.927246
2781.322507	0.085844	0.243443	1587.105103
2781.323406	0.085800	0.243443	1664.238892
2781.324335	0.085767	0.243443	1743.916016
2781.325263	0.085789	0.243443	1823.527832
2781.326177	0.085767	0.243443	1901.918457
2782.351362	1.137023	0.240406	554.867065
2782.352299	0.571124	0.240406	1090.010498
2782.353202	0.088066	0.240406	1169.534424
2782.354126	0.085712	0.240406	1248.732056
2782.355067	0.085723	0.240406	1329.397095
2782.355994	0.085723	0.240406	1408.862061
2782.356885	0.085660	0.240406	1485.185425
2782.357819	0.085734	0.240406	1565.260620
2782.358760	0.085737	0.240406	1645.939453
2782.359668	0.085789	0.240406	1723.835449
2782.360561	0.085745	0.240406	1800.405396
2782.361515	0.085796	0.240406	1882.254639
2783.380177	1.105811	0.244491	487.662445
2783.381115	0.668785	0.244491	1114.983154
2783.382051	0.088418	0.244491	1197.742432
2783.382975	0.085752	0.244491	1276.977295
2783.383868	0.085741	0.244491	1353.543945
2783.384816	0.085682	0.244491	1434.770874
2783.385752	0.085752	0.244491	1515.034668
2783.386667	0.085789	0.244491	1593.531250
2783.387554	0.085756	0.244491	1669.596436
2783.388497	0.085712	0.244491	1750.422485
2783.389432	0.085818	0.244491	1830.662231
2783.390326	0.085778	0.244491	1907.347412
2784.420297	1.105704	0.237651	485.404205
2784.421243	0.626565	0.237651	1078.134644
2784.422204	0.087997	0.237651	1162.699585
2784.423123	0.085898	0.237651	1241.640259
2784.424012	0.085770	0.237651	1317.890015
2784.424956	0.085876	0.237651	1398.957397
2784.425894	0.085767	0.237651	1479.406494
2784.426811	0.085884	0.237651	1558.161865
2784.427702	0.085829	0.237651	1634.635376
2784.428633	0.085851	0.237651	1714.562500
2784.429577	0.085803	0.237651	1795.560791
2784.430477	0.085862	0.237651	1872.836426
2785.444844	1.145306	0.246143	537.148682
2785.445758	0.621123	0.246143	1104.855103
2785.446685	0.088352	0.246143	1186.757446
2785.447575	0.085734	0.246143	1263.060425
2785.448523	0.085756	0.246143	1344.356689
2785.449456	0.085770	0.246143	1424.380371
2785.450347	0.085825	0.246143	1500.850586
2785.451280	0.085752	0.246143	1580.857178
2785.452208	0.085796	0.246143	1660.475830
2785.453123	0.085796	0.246143	1738.979126
2785.454016	0.085748	0.246143	1815.552368
2785.454953	0.085752	0.246143	1895.901978
2786.489807	1.108835	0.236966	486.778717
2786.490746	0.634955	0.236966	1083.001343
2786.491694	0.088136	0.236966	1166.554199
2786.492617	0.085781	0.236966	1245.730347
2786.493513	0.085825	0.236966	1322.629761
2786.494456	0.085825	0.236966	1403.562866
2786.495393	0.085873	0.236966	1484.025635
2786.496293	0.085811	0.236966	1561.255127
2786.497203	0.085785	0.236966	1639.319336
2786.498138	0.085803	0.236966	1719.545410
2786.499062	0.085774	0.236966	1798.800537
2786.499968	0.085854	0.236966	1876.584717
2787.509958	1.106642	0.249043	483.602509
2787.510935	0.592961	0.249043	1062.925781
2787.511870	0.087913	0.249043	1145.124023
2787.512769	0.085789	0.249043	1222.247925
2787.513687	0.085763	0.249043	1300.978271
2787.514619	0.085741	0.249043	1380.888794
2787.515542	0.085833	0.249043	1460.112183
2787.516431	0.085862	0.249043	1536.443359
2787.517377	0.085796	0.249043	1617.606323
2787.518319	0.085800	0.249043	1698.429565
2787.519207	0.085862	0.249043	1774.674805
2787.520118	0.085822	0.249043	1852.858276
2788.557537	1.147848	0.235963	529.157898
2788.558479	0.589900	0.235963	1084.843628
2788.559369	0.088656	0.235963	1163.747437
2788.560300	0.085748	0.235963	1243.579102
2788.561238	0.085800	0.235963	1324.059082
2788.562147	0.085822	0.235963	1402.070801
2788.563037	0.085785	0.235963	1478.419434
2788.563979	0.085833	0.235963	1559.273682
2788.564912	0.085796	0.235963	1639.321289
2788.565798	0.085796	0.235963	1715.336426
2788.566720	0.085847	0.235963	1794.487549
2788.567661	0.085789	0.235963	1875.214600
2789.575377	1.106774	0.252600	490.300751
2789.576315	0.667914	0.252600	1116.803955
2789.577236	0.088737	0.252600	1198.530273
2789.578165	0.085752	0.252600	1278.193848
2789.579063	0.085840	0.252600	1355.278076
2789.579980	0.085814	0.252600	1433.969727
2789.580911	0.085844	0.252600	1513.890015
2789.581823	0.085847	0.252600	1592.182617
2789.582710	0.085847	0.252600	1668.329102
2789.583658	0.085800	0.252600	1749.667114
2789.584595	0.085781	0.252600	1830.044189
2789.585515	0.085865	0.252600	1909.040405
2790.625736	1.101951	0.233836	481.552429
2790.626696	0.615447	0.233836	1072.381348
2790.627641	0.087814	0.233836	1155.365356
2790.628555	0.085807	0.233836	1233.792847
2790.629447	0.085822	0.233836	1310.345703
2790.630399	0.085833	0.233836	1392.058228
2790.631332	0.085796	0.233836	1472.105835
2790.632231	0.085825	0.233836	1549.262695
2790.633160	0.085822	0.233836	1628.990845
2790.634100	0.085847	0.233836	1709.687134
2790.635030	0.085785	0.233836	1789.467041
2790.635920	0.085792	0.233836	1865.822144
2791.642630	1.128651	0.255448	565.454224
2791.643549	0.586531	0.255448	1104.476074
2791.644472	0.088088	0.255448	1185.781616
2791.645359	0.085891	0.255448	1261.967041
2791.646298	0.085781	0.255448	1342.515625
2791.647207	0.085781	0.255448	1420.490723
2791.648125	0.085833	0.255448	1499.284912
2791.649014	0.085803	0.255448	1575.563965
2791.649932	0.085796	0.255448	1654.324585
2791.650874	0.085741	0.255448	1735.092529
2791.651797	0.085825	0.255448	1814.309204
2791.652689	0.085840	0.255448	1890.878296
2792.690912	1.110688	0.231165	504.252563
2792.691807	0.678754	0.231165	1111.737061
2792.692738	0.089908	0.231165	1195.441772
2792.693681	0.085712	0.231165	1276.267822
2792.694594	0.085778	0.231165	1354.582764
2792.695494	0.085792	0.231165	1431.795776
2792.696445	0.085781	0.231165	1513.373779
2792.697371	0.085752	0.231165	1592.780029
2792.698271	0.085822	0.231165	1670.019409
2792.699194	0.085851	0.231165	1749.259766
2792.700120	0.085792	0.231165	1828.703369
2792.701056	0.085807	0.231165	1909.018555
2793.711311	1.106294	0.255843	488.981903
2793.712237	0.668976	0.255843	1108.453491
2793.713183	0.088250	0.255843	1191.937500
2793.714098	0.085807	0.255843	1270.450806
2793.714993	0.085807	0.255843	1347.247925
2793.715922	0.085814	0.255843	1426.969360
2793.716842	0.085836	0.255843	1505.938599
2793.717760	0.085803	0.255843	1584.705933
2793.718651	0.085759	0.255843	1661.117432
2793.719604	0.085840	0.255843	1742.922852
2793.720530	0.085833	0.255843	1822.403809
2793.721423	0.085822	0.255843	1899.042480
2794.755587	1.128398	0.230170	559.685608
2794.756518	0.560947	0.230170	1081.927490
2794.757434	0.087894	0.230170	1162.438721
2794.758334	0.085854	0.230170	1239.707764
2794.759283	0.085701	0.230170	1321.037720
2794.760196	0.085825	0.230170	1399.396118
2794.761122	0.085829	0.230170	1478.873657
2794.762012	0.085829	0.230170	1555.261353
2794.762962	0.085800	0.230170	1636.770996
2794.763877	0.085675	0.230170	1715.163696
2794.764776	0.085712	0.230170	1792.218506
2794.765708	0.085785	0.230170	1872.170044
2795.781583	1.103610	0.255142	487.795441
2795.782566	0.573538	0.255142	1051.583008
2795.783463	0.088162	0.255142	1130.663940
2795.784384	0.085752	0.255142	1209.641479
2795.785272	0.085840	0.255142	1285.867310
2795.786224	0.085759	0.255142	1367.510132
2795.787143	0.085763	0.255142	1446.326294
2795.788046	0.085851	0.255142	1523.849609
2795.788979	0.085712	0.255142	1603.818604
2795.789892	0.085745	0.255142	1682.103394
2795.790819	0.085844	0.255142	1761.680298
2795.791709	0.085800	0.255142	1838.041870
2796.818919	1.116738	0.229381	522.633545
2796.819877	0.580016	0.229381	1078.288818
2796.820793	0.087828	0.229381	1158.739624
2796.821696	0.085818	0.229381	1236.233154
2796.822614	0.085781	0.229381	1314.980347
2796.823557	0.085759	0.229381	1395.851318
2796.824479	0.085844	0.229381	1474.999023
2796.825369	0.085741	0.229381	1551.308472
2796.826320	0.085781	0.229381	1632.886475
2796.827255	0.085770	0.229381	1713.081665
2796.828170	0.085789	0.229381	1791.578247
2796.829056	0.085803	0.229381	1867.599854
2797.851850	1.099376	0.252729	481.526764
2797.852807	0.593646	0.252729	1049.646240
2797.853767	0.087762	0.252729	1133.898193
2797.854693	0.085792	0.252729	1213.341797
2797.855584	0.085796	0.252729	1289.785889
2797.856525	0.085781	0.252729	1370.506104
2797.857457	0.085931	0.252729	1450.594116
2797.858346	0.085756	0.252729	1526.830811
2797.859262	0.085833	0.252729	1605.453369
2797.860193	0.085836	0.252729	1685.366821
2797.861115	0.085811	0.252729	1764.484131
2797.862009	0.085796	0.252729	1841.185669
2798.881739	1.098523	0.231274	481.153046
2798.882707	0.629286	0.231274	1090.301758
2798.883641	0.087865	0.231274	1172.367676
2798.884541	0.085715	0.231274	1249.511475
2798.885458	0.085719	0.231274	1328.115845
2798.886371	0.085792	0.231274	1406.444092
2798.887308	0.085774	0.231274	1486.814209
2798.888203	0.085763	0.231274	1563.572021
2798.889128	0.085781	0.231274	1642.919678
2798.890077	0.085789	0.231274	1724.333008
2798.891009	0.085770	0.231274	1804.270874
2798.891901	0.085756	0.231274	1880.764893
2799.922918	1.115273	0.250566	517.486877
2799.923836	0.635490	0.250566	1100.866211
2799.924722	0.089469	0.250566	1180.135742
2799.925640	0.085719	0.250566	1258.825806
2799.926579	0.085778	0.250566	1339.370972
2799.927495	0.085814	0.250566	1417.976807
2799.928384	0.085792	0.250566	1494.246094
2799.929323	0.085767	0.250566	1574.780884
2799.930264	0.085748	0.250566	1655.469971
2799.931168	0.085807	0.250566	1733.039429
2799.932082	0.085719	0.250566	1811.386597
2799.933011	0.085792	0.250566	1891.087646
2800.945663	1.149130	0.233973	563.073547
2800.946606	0.548807	0.233973	1080.598877
2800.947529	0.087488	0.233973	1161.350098
2800.948421	0.085785	0.233973	1237.870239
2800.949376	0.085756	0.233973	1319.766846
2800.950313	0.085836	0.233973	1400.195312
2800.951210	0.085770	0.233973	1477.131226
2800.952130	0.085752	0.233973	1556.023071
2800.953069	0.085715	0.233973	1636.509766
2800.953980	0.085759	0.233973	1714.636475
2800.954862	0.085748	0.233973	1790.266479
2800.955800	0.085822	0.233973	1870.767090
2801.993466	1.125458	0.251061	546.972473
2801.994364	0.620885	0.251061	1104.527222
2801.995294	0.089106	0.251061	1187.396240
2801.996230	0.085748	0.251061	1267.656616
2801.997158	0.085876	0.251061	1347.349976
2801.998056	0.085803	0.251061	1424.401245
2801.998978	0.085781	0.251061	1503.491577
2801.999912	0.085814	0.251061	1583.642090
2802.000824	0.085833	0.251061	1661.921387
2802.001715	0.085778	0.251061	1738.349243
2802.002656	0.085833	0.251061	1819.117676
2802.003585	0.085814	0.251061	1898.839111
2803.009754	1.113413	0.236748	494.355347
2803.010653	0.686624	0.236748	1111.629883
2803.011607	0.089784	0.236748	1197.283691
2803.012517	0.085759	0.236748	1275.324585
2803.013436	0.085752	0.236748	1354.130615
2803.014331	0.085697	0.236748	1430.829468
2803.015239	0.085748	0.236748	1508.688965
2803.016168	0.085745	0.236748	1588.345703
2803.017083	0.085778	0.236748	1666.832153
2803.017970	0.085774	0.236748	1742.913574
2803.018906	0.085734	0.236748	1823.160278
2803.019842	0.085763	0.236748	1903.434326
2804.062202	1.125791	0.251158	533.624939
2804.063133	0.599897	0.251158	1092.129395
2804.064031	0.088502	0.251158	1171.604370
2804.064955	0.085697	0.251158	1250.788452
2804.065894	0.085865	0.251158	1331.416138
2804.066817	0.085847	0.251158	1410.653076
2804.067709	0.085865	0.251158	1487.245117
2804.068649	0.085814	0.251158	1567.910522
2804.069582	0.085759	0.251158	1647.923950
2804.070497	0.085840	0.251158	1726.467407
2804.071391	0.085796	0.251158	1803.168945
2804.072344	0.085759	0.251158	1884.897583
2805.074960	1.178525	0.237393	592.798218
2805.075867	0.577837	0.237393	1116.896240
2805.076784	0.088008	0.237393	1197.599365
2805.077682	0.085781	0.237393	1274.630981
2805.078643	0.085833	0.237393	1357.115967
2805.079568	0.085803	0.237393	1436.483887
2805.080467	0.085836	0.237393	1513.650635
2805.081400	0.085796	0.237393	1593.698242
2805.082318	0.085800	0.237393	1672.462280
2805.083233	0.085836	0.237393	1751.002441
2805.084126	0.085756	0.237393	1827.582153
2805.085083	0.085734	0.237393	1909.629272
2806.131147	1.108312	0.251424	485.440552
2806.132122	0.595858	0.251424	1066.402344
2806.133041	0.088059	0.251424	1147.328613
2806.133932	0.085822	0.251424	1223.795654
2806.134852	0.085803	0.251424	1302.734619
2806.135785	0.085822	0.251424	1382.806152
2806.136701	0.085844	0.251424	1461.438843
2806.137586	0.085844	0.251424	1537.410400
2806.138536	0.085792	0.251424	1618.913086
2806.139476	0.085825	0.251424	1699.588745
2806.140387	0.085836	0.251424	1777.785522
2806.141288	0.085898	0.251424	1855.180054
2807.140046	1.108436	0.240285	489.928802
2807.141002	0.653936	0.240285	1115.091187
2807.141910	0.088645	0.240285	1195.580811
2807.142830	0.085770	0.240285	1274.489502
2807.143722	0.085825	0.240285	1351.045532
2807.144666	0.085781	0.240285	1432.023071
2807.145573	0.085708	0.240285	1509.760254
2807.146492	0.085807	0.240285	1588.616821
2807.147390	0.085847	0.240285	1665.707520
2807.148342	0.085800	0.240285	1747.388672
2807.149270	0.085825	0.240285	1827.034424
2807.150159	0.085898	0.240285	1903.398193
2808.198620	1.107217	0.250795	491.604218
2808.199520	0.692516	0.250795	1114.868530
2808.200408	0.090553	0.250795	1195.279541
2808.201375	0.085774	0.250795	1278.222900
2808.202272	0.085796	0.250795	1355.181885
2808.203189	0.085767	0.250795	1433.829834
2808.204079	0.085763	0.250795	1510.158813
2808.205006	0.085796	0.250795	1589.691650
2808.205940	0.085789	0.250795	1669.818115
2808.206858	0.085811	0.250795	1748.592163
2808.207744	0.085715	0.250795	1824.535889
2808.208694	0.085807	0.250795	1906.052490
2809.206472	1.095989	0.240885	474.563141
2809.207408	0.676311	0.240885	1107.590210
2809.208330	0.088660	0.240885	1189.334473
2809.209263	0.085737	0.240885	1269.327393
2809.210153	0.085800	0.240885	1345.688965
2809.211088	0.085774	0.240885	1425.887573
2809.212004	0.085756	0.240885	1504.439697
2809.212926	0.085851	0.240885	1583.594116
2809.213811	0.085789	0.240885	1659.516968
2809.214762	0.085759	0.240885	1741.073975
2809.215678	0.085745	0.240885	1819.616089
2809.216568	0.085737	0.240885	1895.922241
2810.266311	1.096747	0.249691	480.375092
2810.267249	0.670726	0.249691	1109.516357
2810.268179	0.088447	0.249691	1191.772339
2810.269099	0.085792	0.249691	1270.701172
2810.269999	0.085811	0.249691	1347.930664
2810.270929	0.085836	0.249691	1427.758301
2810.271841	0.085814	0.249691	1506.020874
2810.272764	0.085811	0.249691	1585.223999
2810.273655	0.085789	0.249691	1661.661621
2810.274602	0.085748	0.249691	1742.865234
2810.275529	0.085818	0.249691	1822.418457
2810.276422	0.085796	0.249691	1899.034180
2811.272908	1.102467	0.238166	487.290436
2811.273801	0.706000	0.238166	1117.748169
2811.274762	0.089377	0.238166	1203.639893
2811.275700	0.085723	0.238166	1284.047729
2811.276607	0.085792	0.238166	1361.861328
2811.277507	0.085829	0.238166	1439.107300
2811.278452	0.085756	0.238166	1520.146362
2811.279385	0.085785	0.238166	1600.183716
2811.280283	0.085807	0.238166	1677.238281
2811.281205	0.085789	0.238166	1756.335327
2811.282149	0.085767	0.238166	1837.298950
2811.283063	0.085796	0.238166	1915.716431
2812.333005	1.110322	0.247605	491.872742
2812.333898	0.684012	0.247605	1102.695801
2812.334864	0.088572	0.247605	1188.256104
2812.335795	0.085734	0.247605	1268.074097
2812.336711	0.085822	0.247605	1346.686646
2812.337596	0.085800	0.247605	1422.619263
2812.338539	0.085756	0.247605	1503.486816
2812.339484	0.085803	0.247605	1584.570801
2812.340376	0.085818	0.247605	1661.120361
2812.341299	0.085829	0.247605	1740.340454
2812.342243	0.085745	0.247605	1821.283325
2812.343162	0.085822	0.247605	1900.153320
2813.339594	1.102584	0.237095	484.034485
2813.340486	0.696215	0.237095	1105.057861
2813.341461	0.088905	0.237095	1191.740234
2813.342403	0.085741	0.237095	1272.508179
2813.343306	0.085825	0.237095	1350.008301
2813.344225	0.085811	0.237095	1428.868164
2813.345161	0.085701	0.237095	1509.083984
2813.346076	0.085781	0.237095	1587.573853
2813.346964	0.085741	0.237095	1663.711792
2813.347903	0.085803	0.237095	1744.281006
2813.348817	0.085884	0.237095	1822.778809
2813.349727	0.085836	0.237095	1900.889771
2814.400203	1.101116	0.247158	483.389801
2814.401162	0.626887	0.247158	1084.574585
2814.402083	0.088136	0.247158	1165.747803
2814.402980	0.085767	0.247158	1242.680420
2814.403896	0.085748	0.247158	1321.225830
2814.404828	0.085778	0.247158	1401.170532
2814.405759	0.085752	0.247158	1481.005615
2814.406649	0.085745	0.247158	1557.318359
2814.407581	0.085734	0.247158	1637.222168
2814.408522	0.085770	0.247158	1717.932007
2814.409434	0.085774	0.247158	1796.157837
2814.410327	0.085781	0.247158	1872.760498
2815.406534	1.094604	0.236575	472.869141
2815.407471	0.677802	0.236575	1107.969238
2815.408391	0.088788	0.236575	1189.654053
2815.409315	0.085748	0.236575	1268.885498
2815.410210	0.085844	0.236575	1345.715454
2815.411163	0.085737	0.236575	1427.423096
2815.412087	0.085829	0.236575	1506.729004
2815.412997	0.085844	0.236575	1584.846558
2815.413905	0.085796	0.236575	1662.749268
2815.414840	0.085759	0.236575	1742.934204
2815.415761	0.085796	0.236575	1821.952271
2815.416663	0.085734	0.236575	1899.284058
2816.466892	1.102006	0.244583	482.678467
2816.467870	0.605098	0.244583	1074.463989
2816.468792	0.088088	0.244583	1155.681519
2816.469681	0.085767	0.244583	1231.927979
2816.470606	0.085767	0.244583	1311.262085
2816.471545	0.085844	0.244583	1391.869141
2816.472454	0.085803	0.244583	1469.864258
2816.473347	0.085785	0.244583	1546.470215
2816.474274	0.085814	0.244583	1626.020020
2816.475213	0.085759	0.244583	1706.547974
2816.476112	0.085778	0.244583	1783.661987
2816.477032	0.085825	0.244583	1862.621216
2817.473546	1.180763	0.235721	591.562195
2817.474480	0.549690	0.235721	1104.972656
2817.475405	0.087495	0.235721	1185.905640
2817.476293	0.085763	0.235721	1262.063110
2817.477245	0.085712	0.235721	1343.660645
2817.478161	0.085704	0.235721	1422.165771
2817.479055	0.085770	0.235721	1498.844360
2817.479977	0.085748	0.235721	1577.904297
2817.480895	0.085756	0.235721	1656.627930
2817.481809	0.085770	0.235721	1735.021973
2817.482702	0.085818	0.235721	1811.657349
2817.483643	0.085715	0.235721	1892.315430
2818.533609	1.134207	0.244269	520.600769
2818.534519	0.640045	0.244269	1103.041870
2818.535438	0.088810	0.244269	1184.658081
2818.536336	0.085770	0.244269	1261.679810
2818.537283	0.085778	0.244269	1342.911133
2818.538203	0.085767	0.244269	1421.816406
2818.539098	0.085833	0.244269	1498.636475
2818.540034	0.085818	0.244269	1578.962036
2818.540953	0.085785	0.244269	1657.798340
2818.541867	0.085920	0.244269	1736.329590
2818.542754	0.085873	0.244269	1812.498779
2818.543697	0.085781	0.244269	1893.390503
2819.540689	1.112377	0.233739	490.558105
2819.541598	0.683936	0.233739	1112.255615
2819.542490	0.090205	0.233739	1192.718506
2819.543443	0.085840	0.233739	1274.523926
2819.544354	0.085778	0.233739	1352.667358
2819.545277	0.085836	0.233739	1431.894165
2819.546169	0.085818	0.233739	1508.443726
2819.547118	0.085844	0.233739	1589.909180
2819.548040	0.085880	0.233739	1669.090698
2819.548930	0.085807	0.233739	1745.458862
2819.549872	0.085759	0.233739	1826.244141
2819.550766	0.085778	0.233739	1902.929321
2820.600286	1.112175	0.243621	498.254547
2820.601199	0.660798	0.243621	1101.563354
2820.602089	0.089821	0.243621	1181.503662
2820.603029	0.085792	0.243621	1262.148315
2820.603940	0.085796	0.243621	1340.308350
2820.604867	0.085829	0.243621	1419.871704
2820.605759	0.085836	0.243621	1496.437622
2820.606710	0.085829	0.243621	1578.060913
2820.607614	0.085785	0.243621	1655.610474
2820.608538	0.085770	0.243621	1734.862183
2820.609422	0.085796	0.243621	1810.705811
2820.610368	0.085774	0.243621	1891.847900
2821.607887	1.099211	0.233413	482.553833
2821.608775	0.704645	0.233413	1108.278320
2821.609726	0.089128	0.233413	1193.039429
2821.610634	0.085693	0.233413	1270.848999
2821.611525	0.085833	0.233413	1347.325806
2821.612452	0.085898	0.233413	1426.953613
2821.613372	0.085778	0.233413	1505.869019
2821.614276	0.085789	0.233413	1583.421875
2821.615165	0.085811	0.233413	1659.707397
2821.616103	0.085862	0.233413	1740.245728
2821.617015	0.085774	0.233413	1818.471558
2821.617934	0.085840	0.233413	1897.358398
2822.666718	1.108678	0.244229	495.579071
2822.667617	0.690135	0.244229	1116.010864
2822.668503	0.090513	0.244229	1196.205078
2822.669450	0.085800	0.244229	1277.457275
2822.670357	0.085800	0.244229	1355.277466
2822.671282	0.085796	0.244229	1434.638672
2822.672174	0.085745	0.244229	1511.122925
2822.673128	0.085851	0.244229	1593.024658
2822.674032	0.085785	0.244229	1670.574219
2822.674921	0.085862	0.244229	1746.905396
2822.675866	0.085822	0.244229	1828.006714
2822.676784	0.085774	0.244229	1906.747192
2823.675906	1.165822	0.231536	567.755066
2823.676812	0.606654	0.231536	1117.383545
2823.677731	0.088293	0.231536	1198.525269
2823.678627	0.085774	0.231536	1275.378662
2823.679586	0.085796	0.231536	1357.656982
2823.680491	0.085774	0.231536	1435.282349
2823.681380	0.085825	0.231536	1511.580933
2823.682311	0.085902	0.231536	1591.555786
2823.683219	0.085792	0.231536	1669.455078
2823.684138	0.085796	0.231536	1748.301514
2823.685024	0.085840	0.231536	1824.355591
2823.685964	0.085829	0.231536	1905.034668
2824.732643	1.128827	0.244898	514.745056
2824.733548	0.667222	0.244898	1118.580688
2824.734433	0.089890	0.244898	1198.133423
2824.735354	0.085745	0.244898	1277.104248
2824.736308	0.085800	0.244898	1358.957031
2824.737210	0.085756	0.244898	1436.308594
2824.738098	0.085785	0.244898	1512.485596
2824.739029	0.085811	0.244898	1592.375244
2824.739939	0.085833	0.244898	1670.482788
2824.740859	0.085778	0.244898	1749.398193
2824.741749	0.085818	0.244898	1825.776123
2824.742694	0.085781	0.244898	1906.839355
2825.744587	1.111908	0.230174	487.015686
2825.745561	0.580770	0.230174	1052.685913
2825.746459	0.088341	0.230174	1132.016235
2825.747349	0.085796	0.230174	1208.374634
2825.748286	0.085829	0.230174	1288.796265
2825.749194	0.085847	0.230174	1366.745483
2825.750094	0.085763	0.230174	1443.932129
2825.750985	0.085811	0.230174	1520.389282
2825.751932	0.085869	0.230174	1601.707397
2825.752830	0.085767	0.230174	1678.725830
2825.753732	0.085833	0.230174	1756.146729
2825.754621	0.085778	0.230174	1832.402954
2826.797256	1.094561	0.246972	471.755585
2826.798200	0.670957	0.246972	1105.139038
2826.799118	0.088638	0.246972	1186.508423
2826.800022	0.085704	0.246972	1263.985107
2826.800909	0.085778	0.246972	1340.069824
2826.801861	0.085796	0.246972	1421.747559
2826.802772	0.085697	0.246972	1499.817505
2826.803674	0.085807	0.246972	1577.215332
2826.804560	0.085737	0.246972	1653.178589
2826.805486	0.085781	0.246972	1732.612061
2826.806391	0.085745	0.246972	1810.210937
2826.807280	0.085734	0.246972	1886.428101
2827.814095	1.112102	0.228414	488.212799
2827.815063	0.602769	0.228414	1071.692749
2827.815977	0.088572	0.228414	1152.647339
2827.816870	0.085774	0.228414	1229.243408
2827.817760	0.085756	0.228414	1305.565918
2827.818706	0.085792	0.228414	1386.725342
2827.819608	0.085796	0.228414	1464.113281
2827.820498	0.085763	0.228414	1540.442261
2827.821431	0.085862	0.228414	1620.551392
2827.822322	0.085854	0.228414	1697.047729
2827.823228	0.085822	0.228414	1774.802002
2827.824121	0.085829	0.228414	1851.447144
2828.861133	1.106122	0.249115	490.011993
2828.862093	0.599707	0.249115	1065.730835
2828.863009	0.088261	0.249115	1146.577393
2828.863930	0.085854	0.249115	1225.649414
2828.864817	0.085803	0.249115	1301.756836
2828.865762	0.085825	0.249115	1382.861694
2828.866656	0.085796	0.249115	1459.563232
2828.867543	0.085865	0.249115	1535.725952
2828.868477	0.085811	0.249115	1615.873047
2828.869377	0.085800	0.249115	1693.092651
2828.870291	0.085723	0.249115	1771.443115
2828.871188	0.085759	0.249115	1848.369141
2829.884396	1.124077	0.226903	530.564453
2829.885327	0.603171	0.226903	1092.116943
2829.886230	0.088755	0.226903	1172.262573
2829.887119	0.085712	0.226903	1248.460205
2829.888061	0.085902	0.226903	1329.380005
2829.888965	0.085668	0.226903	1406.823608
2829.889872	0.085756	0.226903	1484.604004
2829.890763	0.085789	0.226903	1561.041626
2829.891711	0.085873	0.226903	1642.449097
2829.892616	0.085800	0.226903	1720.097656
2829.893508	0.085763	0.226903	1796.598145
2829.894426	0.085770	0.226903	1875.335205
2830.925026	1.129274	0.253317	509.302460
2830.925929	0.673345	0.253317	1117.332764
2830.926819	0.090117	0.253317	1197.537109
2830.927764	0.085767	0.253317	1278.586548
2830.928672	0.085862	0.253317	1356.549072
2830.929564	0.085822	0.253317	1433.101929
2830.930452	0.085906	0.253317	1509.386230
2830.931399	0.085865	0.253317	1590.700806
2830.932315	0.085811	0.253317	1669.303223
2830.933214	0.085792	0.253317	1746.430420
2830.934104	0.085847	0.253317	1822.834351
2830.935047	0.085818	0.253317	1903.760620
2831.954899	1.109978	0.225977	483.950439
2831.955806	0.689634	0.225977	1109.448242
2831.956695	0.090311	0.225977	1189.734985
2831.957623	0.085756	0.225977	1269.316162
2831.958531	0.085876	0.225977	1347.291992
2831.959438	0.085778	0.225977	1425.092285
2831.960328	0.085829	0.225977	1501.479980
2831.961271	0.085807	0.225977	1582.395874
2831.962188	0.085785	0.225977	1661.060669
2831.963080	0.085778	0.225977	1737.574219
2831.963971	0.085774	0.225977	1813.998779
2831.964911	0.085822	0.225977	1894.671021
2832.988374	1.118599	0.252922	498.894958
2832.989287	0.663728	0.252922	1104.878662
2832.990178	0.089938	0.252922	1185.013184
2832.991128	0.085873	0.252922	1266.592285
2832.992029	0.085803	0.252922	1343.901001
2832.992928	0.085887	0.252922	1421.113770
2832.993818	0.085789	0.252922	1497.465576
2832.994769	0.085869	0.252922	1579.127075
2832.995663	0.085781	0.252922	1655.815552
2832.996552	0.085792	0.252922	1732.084839
2832.997479	0.085844	0.252922	1811.661743
2832.998404	0.085840	0.252922	1891.063599
2834.025450	1.132621	0.224345	519.872925
2834.026353	0.662289	0.224345	1117.919678
2834.027254	0.089839	0.224345	1198.864502
2834.028188	0.085942	0.224345	1279.134644
2834.029095	0.085770	0.224345	1356.928223
2834.029989	0.085829	0.224345	1433.659180
2834.030921	0.085972	0.224345	1513.784790
2834.031832	0.085814	0.224345	1591.961548
2834.032732	0.085807	0.224345	1669.187744
2834.033618	0.085814	0.224345	1745.219116
2834.034565	0.085858	0.224345	1826.526733
2834.035476	0.085884	0.224345	1904.766846
2835.051736	1.119408	0.252846	500.375366
2835.052643	0.671305	0.252846	1109.249023
2835.053533	0.090044	0.252846	1189.388184
2835.054481	0.085844	0.252846	1270.767822
2835.055385	0.085789	0.252846	1348.320679
2835.056277	0.085858	0.252846	1424.906128
2835.057178	0.085800	0.252846	1502.211548
2835.058109	0.085822	0.252846	1582.111450
2835.059009	0.085792	0.252846	1659.324463
2835.059897	0.085833	0.252846	1735.543701
2835.060836	0.085873	0.252846	1816.178223
2835.061736	0.085822	0.252846	1893.417603
2836.095706	1.125139	0.223475	508.562866
2836.096603	0.680241	0.223475	1118.738525
2836.097560	0.088927	0.223475	1203.841675
2836.098476	0.085712	0.223475	1282.353516
2836.099375	0.085748	0.223475	1359.441284
2836.100263	0.085767	0.223475	1435.602051
2836.101184	0.085825	0.223475	1514.647095
2836.102083	0.085807	0.223475	1591.787476
2836.102975	0.085836	0.223475	1668.353394
2836.103909	0.085781	0.223475	1748.473145
2836.104815	0.085803	0.223475	1826.210815
2836.105725	0.085811	0.223475	1904.298462
2837.116107	1.102903	0.253623	484.174316
2837.117030	0.683844	0.253623	1115.362305
2837.117957	0.089044	0.253623	1197.906250
2837.118858	0.085792	0.253623	1275.205078
2837.119745	0.085822	0.253623	1351.328735
2837.120675	0.085811	0.253623	1431.132568
2837.121583	0.085770	0.253623	1509.011963
2837.122487	0.085778	0.253623	1586.554932
2837.123377	0.085767	0.253623	1662.887207
2837.124318	0.085814	0.253623	1743.638428
2837.125217	0.085807	0.253623	1820.778809
2837.126109	0.085825	0.253623	1897.334839
2838.164456	1.123114	0.227169	512.139954
2838.165360	0.652841	0.227169	1102.307861
2838.166256	0.089480	0.227169	1182.481934
2838.167189	0.085792	0.227169	1262.526123
2838.168104	0.085737	0.227169	1340.975708
2838.169003	0.085818	0.227169	1418.125977
2838.169894	0.085840	0.227169	1494.609253
2838.170849	0.085876	0.227169	1576.621338
2838.171757	0.085796	0.227169	1654.524048
2838.172651	0.085807	0.227169	1731.235352
2838.173553	0.085818	0.227169	1808.643066
2838.174476	0.085814	0.227169	1887.849609
2839.181536	1.137235	0.253865	518.579163
2839.182443	0.653313	0.253865	1111.134033
2839.183332	0.089788	0.253865	1190.955200
2839.184303	0.085811	0.253865	1274.277222
2839.185210	0.085785	0.253865	1352.084106
2839.186102	0.085778	0.253865	1428.597656
2839.187033	0.085873	0.253865	1508.545288
2839.187935	0.085822	0.253865	1585.956299
2839.188835	0.085800	0.253865	1663.175903
2839.189727	0.085792	0.253865	1739.702637
2839.190669	0.085851	0.253865	1820.574097
2839.191576	0.085847	0.253865	1898.437500
2840.232406	1.117291	0.228696	500.546448
2840.233304	0.666218	0.228696	1098.810425
2840.234264	0.088671	0.228696	1183.934204
2840.235163	0.085858	0.228696	1261.120728
2840.236051	0.085858	0.228696	1337.362793
2840.236994	0.085844	0.228696	1418.313232
2840.237906	0.085807	0.228696	1496.569092
2840.238810	0.085726	0.228696	1574.065674
2840.239700	0.085818	0.228696	1650.443604
2840.240633	0.085833	0.228696	1730.525391
2840.241527	0.085800	0.228696	1807.230225
2840.242443	0.085818	0.228696	1885.839355
2841.247979	1.144160	0.253482	532.034485
2841.248885	0.645670	0.253482	1117.011719
2841.249772	0.089663	0.253482	1196.542847
2841.250735	0.085829	0.253482	1279.196045
2841.251631	0.085825	0.253482	1356.095459
2841.252519	0.085811	0.253482	1432.295166
2841.253453	0.085840	0.253482	1512.469604
2841.254367	0.085822	0.253482	1590.910522
2841.255269	0.085829	0.253482	1668.328125
2841.256160	0.085814	0.253482	1744.788574
2841.257111	0.085917	0.253482	1826.495361
2841.258022	0.085748	0.253482	1904.612061
2842.299345	1.108546	0.233220	495.520111
2842.300326	0.586469	0.233220	1070.845703
2842.301240	0.088231	0.233220	1151.489014
2842.302135	0.085734	0.233220	1228.220581
2842.303027	0.085898	0.233220	1304.842041
2842.303972	0.085939	0.233220	1386.054077
2842.304874	0.085847	0.233220	1463.488281
2842.305762	0.085836	0.233220	1539.710815
2842.306698	0.086005	0.233220	1620.211182
2842.307596	0.085833	0.233220	1697.288818
2842.308486	0.085803	0.233220	1773.653687
2842.309374	0.085741	0.233220	1849.791626
2843.315655	1.096205	0.250594	477.945312
2843.316622	0.645297	0.250594	1101.947144
2843.317525	0.088553	0.250594	1181.910889
2843.318429	0.085756	0.250594	1259.433960
2843.319323	0.085818	0.250594	1336.155151
2843.320248	0.085840	0.250594	1415.557007
2843.321155	0.085763	0.250594	1493.343994
2843.322059	0.085862	0.250594	1570.963135
2843.322947	0.085884	0.250594	1647.227905
2843.323882	0.085906	0.250594	1727.549805
2843.324778	0.085822	0.250594	1804.445923
2843.325664	0.085811	0.250594	1880.474121
2844.365512	1.098904	0.236559	479.122101
2844.366468	0.660824	0.236559	1110.869751
2844.367385	0.088726	0.236559	1192.231079
2844.368279	0.085792	0.236559	1268.929321
2844.369169	0.085737	0.236559	1345.235474
2844.370089	0.085909	0.236559	1424.272095
2844.370996	0.085774	0.236559	1502.069092
2844.371898	0.085836	0.236559	1579.493286
2844.372786	0.085825	0.236559	1655.706055
2844.373724	0.085789	0.236559	1736.175781
2844.374631	0.085719	0.236559	1813.922852
2844.375522	0.085792	0.236559	1890.363770
2845.383893	1.117929	0.252809	498.596100
2845.384797	0.678904	0.252809	1112.325073
2845.385715	0.090212	0.252809	1195.140015
2845.386643	0.085884	0.252809	1274.840210
2845.387550	0.085829	0.252809	1352.687012
2845.388440	0.085811	0.252809	1429.058350
2845.389368	0.085906	0.252809	1508.778931
2845.390269	0.085913	0.252809	1586.186646
2845.391171	0.085818	0.252809	1663.594360
2845.392058	0.085833	0.252809	1739.727783
2845.393019	0.085975	0.252809	1822.350098
2845.393922	0.085800	0.252809	1899.827148
2846.430438	1.131636	0.240281	512.630981
2846.431347	0.667181	0.240281	1119.098877
2846.432237	0.089875	0.240281	1199.088013
2846.433150	0.085847	0.240281	1277.466431
2846.434080	0.085767	0.240281	1357.229370
2846.434979	0.085712	0.240281	1434.284180
2846.435870	0.085789	0.240281	1510.721802
2846.436805	0.085803	0.240281	1590.947754
2846.437712	0.085829	0.240281	1668.794556
2846.438637	0.085792	0.240281	1748.152344
2846.439527	0.085913	0.240281	1824.614990
2846.440470	0.085909	0.240281	1905.627563
2847.453660	1.118038	0.246578	498.645081
2847.454580	0.653789	0.246578	1100.130981
2847.455498	0.089066	0.246578	1181.893677
2847.456394	0.085803	0.246578	1258.773315
2847.457345	0.085789	0.246578	1340.358276
2847.458253	0.085844	0.246578	1418.304199
2847.459144	0.085909	0.246578	1494.849487
2847.460081	0.085807	0.246578	1575.250488
2847.460997	0.085807	0.246578	1653.849609
2847.461918	0.085865	0.246578	1732.931763
2847.462809	0.085767	0.246578	1809.349854
2847.463747	0.085741	0.246578	1889.774902
2848.496074	1.106206	0.240273	485.624451
2848.497045	0.598982	0.240273	1067.235840
2848.497947	0.088542	0.240273	1147.101196
2848.498837	0.085829	0.240273	1223.488892
2848.499766	0.085825	0.240273	1303.220459
2848.500687	0.085833	0.240273	1382.272217
2848.501593	0.085836	0.240273	1460.039795
2848.502479	0.085854	0.240273	1536.106934
2848.503462	0.085807	0.240273	1620.455078
2848.504367	0.085822	0.240273	1698.123535
2848.505287	0.085840	0.240273	1777.096191
2848.506172	0.085844	0.240273	1853.067749
2849.521387	1.136415	0.245160	529.569275
2849.522296	0.636672	0.245160	1108.304443
2849.523237	0.089052	0.245160	1192.101929
2849.524147	0.085778	0.245160	1270.159546
2849.525071	0.085763	0.245160	1349.404541
2849.525960	0.085822	0.245160	1425.699829
2849.526916	0.085833	0.245160	1507.755737
2849.527808	0.085778	0.245160	1584.269287
2849.528702	0.085825	0.245160	1660.997070
2849.529645	0.085902	0.245160	1742.002808
2849.530553	0.085884	0.245160	1819.985352
2849.531454	0.085840	0.245160	1897.327026
2850.561745	1.106521	0.239270	486.869232
2850.562641	0.686569	0.239270	1102.034668
2850.563612	0.088418	0.239270	1187.888550
2850.564519	0.085792	0.239270	1265.702148
2850.565410	0.085854	0.239270	1342.198486
2850.566369	0.085811	0.239270	1424.490845
2850.567284	0.085792	0.239270	1502.990723
2850.568214	0.085840	0.239270	1582.821777
2850.569104	0.085781	0.239270	1659.167114
2850.570037	0.085847	0.239270	1739.262573
2850.570955	0.085763	0.239270	1817.992920
2850.571850	0.085748	0.239270	1894.737671
2851.589647	1.164976	0.242271	591.807617
2851.590557	0.575530	0.242271	1115.539673
2851.591476	0.087872	0.242271	1196.294312
2851.592372	0.085803	0.242271	1273.173950
2851.593312	0.085814	0.242271	1353.839355
2851.594214	0.085792	0.242271	1431.223999
2851.595107	0.085858	0.242271	1507.895264
2851.596025	0.085902	0.242271	1586.753418
2851.596954	0.085807	0.242271	1666.468018
2851.597847	0.085785	0.242271	1743.073975
2851.598735	0.085862	0.242271	1819.319214
2851.599671	0.085854	0.242271	1899.678955
2852.628429	1.107821	0.237929	489.656891
2852.629387	0.655752	0.237929	1117.867310
2852.630299	0.088715	0.237929	1198.775024
2852.631216	0.085800	0.237929	1277.453247
2852.632103	0.085814	0.237929	1353.570435
2852.633045	0.085825	0.237929	1434.417725
2852.633951	0.085785	0.237929	1512.138916
2852.634876	0.085840	0.237929	1591.540771
2852.635764	0.085778	0.237929	1667.711304
2852.636711	0.085785	0.237929	1748.949585
2852.637610	0.085712	0.237929	1826.004395
2852.638503	0.085785	0.237929	1902.610352
2853.657289	1.106309	0.239858	484.563171
2853.658186	0.700415	0.239858	1112.835449
2853.659144	0.089220	0.239858	1198.308228
2853.660052	0.085800	0.239858	1276.214233
2853.660947	0.085836	0.239858	1353.037598
2853.661837	0.085825	0.239858	1429.421997
2853.662779	0.085818	0.239858	1510.262451
2853.663680	0.085796	0.239858	1587.564575
2853.664598	0.085825	0.239858	1666.352051
2853.665489	0.085862	0.239858	1742.854980
2853.666435	0.085800	0.239858	1824.021362
2853.667331	0.085825	0.239858	1900.920776
2854.695112	1.108521	0.237010	483.314941
2854.696070	0.609038	0.237010	1066.773437
2854.696980	0.088693	0.237010	1147.483765
2854.697869	0.085884	0.237010	1223.834473
2854.698806	0.085887	0.237010	1304.311035
2854.699714	0.085913	0.237010	1382.320068
2854.700623	0.085862	0.237010	1460.368408
2854.701513	0.085869	0.237010	1536.791992
2854.702471	0.085935	0.237010	1619.117798
2854.703384	0.085789	0.237010	1697.442749
2854.704278	0.085814	0.237010	1774.160645
2854.705164	0.085880	0.237010	1850.250488
2855.723742	1.117606	0.240777	508.510803
2855.724639	0.672686	0.240777	1111.909668
2855.725587	0.088846	0.240777	1196.136108
2855.726501	0.085741	0.240777	1274.503296
2855.727402	0.085789	0.240777	1351.798828
2855.728293	0.085792	0.240777	1428.239746
2855.729242	0.085818	0.240777	1509.680908
2855.730146	0.085814	0.240777	1587.256958
2855.731035	0.085833	0.240777	1663.562012
2855.731965	0.085774	0.240777	1743.331787
2855.732878	0.085862	0.240777	1821.723633
2855.733773	0.085789	0.240777	1898.504395
2856.762342	1.128369	0.235246	513.407959
2856.763247	0.665607	0.235246	1115.781982
2856.764133	0.089982	0.235246	1195.505737
2856.765078	0.085854	0.235246	1276.638184
2856.765979	0.085847	0.235246	1353.986450
2856.766881	0.085876	0.235246	1431.447021
2856.767770	0.085822	0.235246	1507.742310
2856.768714	0.085898	0.235246	1588.830444
2856.769617	0.085854	0.235246	1666.357056
2856.770510	0.085814	0.235246	1742.989136
2856.771450	0.085770	0.235246	1823.613159
2856.772354	0.085844	0.235246	1901.215698
2857.789904	1.110128	0.239488	492.896912
2857.790797	0.696467	0.239488	1114.842163
2857.791761	0.088861	0.239488	1200.504272
2857.792656	0.085789	0.239488	1277.285034
2857.793562	0.085803	0.239488	1355.022705
2857.794460	0.085858	0.239488	1432.123291
2857.795400	0.085913	0.239488	1512.881592
2857.796313	0.085833	0.239488	1591.246704
2857.797209	0.085811	0.239488	1668.132935
2857.798135	0.085909	0.239488	1747.685059
2857.799038	0.085844	0.239488	1825.201782
2857.799937	0.085789	0.239488	1902.325684
2858.829770	1.105382	0.233469	485.262726
2858.830708	0.674312	0.233469	1117.766968
2858.831662	0.088440	0.233469	1202.138672
2858.832586	0.085748	0.233469	1281.370117
2858.833477	0.085836	0.233469	1357.850098
2858.834415	0.085737	0.233469	1438.271729
2858.835343	0.085767	0.233469	1517.863159
2858.836261	0.085811	0.233469	1596.637207
2858.837147	0.085796	0.233469	1672.652344
2858.838096	0.085814	0.233469	1754.090088
2858.839041	0.085726	0.233469	1835.101440
2858.839940	0.085814	0.233469	1912.248413
2859.855311	1.096725	0.240060	479.268768
2859.856211	0.701982	0.240060	1111.052979
2859.857171	0.089099	0.240060	1196.588135
2859.858102	0.085862	0.240060	1276.525513
2859.859018	0.085781	0.240060	1355.101196
2859.859908	0.085851	0.240060	1431.508423
2859.860855	0.085829	0.240060	1512.788330
2859.861788	0.085858	0.240060	1592.894043
2859.862675	0.085887	0.240060	1669.076172
2859.863590	0.085836	0.240060	1747.616333
2859.864523	0.085854	0.240060	1827.718628
2859.865438	0.085800	0.240060	1906.225220
2860.897522	1.131401	0.233067	529.495850
2860.898435	0.635475	0.233067	1109.684326
2860.899323	0.089341	0.233067	1189.018921
2860.900279	0.085763	0.233067	1271.008301
2860.901219	0.085822	0.233067	1351.680542
2860.902110	0.085785	0.233067	1428.114868
2860.903024	0.085818	0.233067	1506.552368
2860.903949	0.085800	0.233067	1585.916992
2860.904860	0.085785	0.233067	1664.067017
2860.905756	0.085829	0.233067	1740.969727
2860.906708	0.085778	0.233067	1822.630005
2860.907643	0.085774	0.233067	1902.828613
2861.920757	1.154938	0.239967	553.215210
2861.921692	0.590596	0.239967	1105.422119
2861.922581	0.088572	0.239967	1184.162476
2861.923521	0.085833	0.239967	1264.845093
2861.924461	0.085778	0.239967	1345.476074
2861.925359	0.085781	0.239967	1422.507690
2861.926278	0.085737	0.239967	1501.300293
2861.927227	0.085807	0.239967	1582.731079
2861.928140	0.085800	0.239967	1661.066040
2861.929028	0.085829	0.239967	1737.282104
2861.929972	0.085822	0.239967	1818.297607
2861.930907	0.085770	0.239967	1898.492798
2862.965959	1.113673	0.232245	488.902496
2862.966936	0.573827	0.232245	1049.531372
2862.967859	0.087795	0.232245	1130.566528
2862.968747	0.085781	0.232245	1206.740234
2862.969667	0.085796	0.232245	1285.672485
2862.970606	0.085825	0.232245	1366.262329
2862.971521	0.085822	0.232245	1444.789062
2862.972411	0.085730	0.232245	1521.088745
2862.973362	0.085752	0.232245	1602.638794
2862.974299	0.085789	0.232245	1683.022705
2862.975190	0.085767	0.232245	1759.440796
2862.976113	0.085693	0.232245	1838.535767
2863.985912	1.159299	0.242638	561.100830
2863.986874	0.543618	0.242638	1084.061523
2863.987801	0.087502	0.242638	1165.176270
2863.988687	0.085748	0.242638	1241.149292
2863.989633	0.085785	0.242638	1322.301758
2863.990558	0.085796	0.242638	1401.662964
2863.991457	0.085833	0.242638	1478.826416
2863.992368	0.085770	0.242638	1556.963135
2863.993302	0.085796	0.242638	1637.096558
2863.994217	0.085836	0.242638	1715.636719
2863.995115	0.085781	0.242638	1792.668335
2863.996059	0.085800	0.242638	1873.663086
2865.034450	1.103789	0.230069	482.355835
2865.035381	0.670642	0.230069	1106.723633
2865.036307	0.088938	0.230069	1189.080200
2865.037233	0.085745	0.230069	1268.479736
2865.038124	0.085814	0.230069	1344.940186
2865.039044	0.085825	0.230069	1423.899414
2865.039980	0.085818	0.230069	1504.224976
2865.040899	0.085851	0.230069	1583.121948
2865.041795	0.085862	0.230069	1660.054199
2865.042730	0.085807	0.230069	1740.283691
2865.043656	0.085796	0.230069	1819.730713
2865.044583	0.085847	0.230069	1899.311035
2866.051528	1.117072	0.245135	491.511475
2866.052505	0.575852	0.245135	1054.118896
2866.053430	0.087810	0.245135	1135.343140
2866.054334	0.085800	0.245135	1212.906006
2866.055272	0.085785	0.245135	1293.372314
2866.056188	0.085840	0.245135	1372.001587
2866.057106	0.085825	0.245135	1450.789062
2866.057997	0.085803	0.245135	1527.239746
2866.058951	0.085763	0.245135	1609.057617
2866.059872	0.085737	0.245135	1688.021729
2866.060762	0.085811	0.245135	1764.393066
2866.061672	0.085734	0.245135	1842.410645
2867.101897	1.114274	0.228913	489.166138
2867.102875	0.572856	0.228913	1049.419678
2867.103796	0.087872	0.228913	1130.350098
2867.104686	0.085833	0.228913	1206.741089
2867.105597	0.085847	0.228913	1284.947876
2867.106538	0.085789	0.228913	1365.674927
2867.107455	0.085822	0.228913	1444.373291
2867.108340	0.085811	0.228913	1520.315674
2867.109278	0.085767	0.228913	1600.764771
2867.110214	0.085800	0.228913	1681.073120
2867.111106	0.085811	0.228913	1757.616089
2867.112024	0.085811	0.228913	1836.390137
2868.118278	1.131075	0.248044	564.406616
2868.119200	0.573607	0.248044	1093.272461
2868.120119	0.087850	0.248044	1174.006958
2868.121014	0.085854	0.248044	1250.846680
2868.121967	0.085811	0.248044	1332.624146
2868.122884	0.085800	0.248044	1411.302368
2868.123805	0.085865	0.248044	1490.384521
2868.124693	0.085774	0.248044	1566.551758
2868.125637	0.085854	0.248044	1647.598389
2868.126552	0.085909	0.248044	1726.205566
2868.127447	0.085887	0.248044	1803.074829
2868.128388	0.085844	0.248044	1883.853516
2869.168854	1.108579	0.226214	493.317657
2869.169761	0.675395	0.226214	1105.901367
2869.170647	0.090231	0.226214	1185.845825
2869.171585	0.085803	0.226214	1266.329224
2869.172505	0.085833	0.226214	1345.295166
2869.173427	0.085822	0.226214	1424.422607
2869.174315	0.085865	0.226214	1500.671143
2869.175272	0.085836	0.226214	1582.816406
2869.176185	0.085767	0.226214	1661.121338
2869.177096	0.085880	0.226214	1739.358154
2869.178002	0.085803	0.226214	1817.095825
2869.178933	0.085811	0.226214	1896.985474
2870.185435	1.116683	0.250831	499.157471
2870.186347	0.662113	0.250831	1103.004639
2870.187236	0.089835	0.250831	1182.868164
2870.188200	0.085847	0.250831	1265.624878
2870.189106	0.085917	0.250831	1343.465454
2870.189997	0.085759	0.250831	1419.876953
2870.190928	0.085847	0.250831	1499.800659
2870.191832	0.085822	0.250831	1577.383301
2870.192730	0.085822	0.250831	1654.451050
2870.193615	0.085803	0.250831	1730.386963
2870.194547	0.085807	0.250831	1810.359009
2870.195457	0.085814	0.250831	1888.449951
2871.234553	1.159156	0.225078	549.440125
2871.235464	0.617106	0.225078	1111.623413
2871.236398	0.088477	0.225078	1194.260498
2871.237289	0.085800	0.225078	1270.707886
2871.238240	0.085745	0.225078	1352.250977
2871.239135	0.085840	0.225078	1429.077637
2871.240028	0.085825	0.225078	1505.719482
2871.240963	0.085770	0.225078	1585.914673
2871.241864	0.085851	0.225078	1663.266235
2871.242777	0.085752	0.225078	1741.557739
2871.243671	0.085891	0.225078	1818.344360
2871.244631	0.085814	0.225078	1900.725952
2872.253383	1.099438	0.251327	480.454590
2872.254342	0.613052	0.251327	1068.371216
2872.255252	0.088704	0.251327	1149.091553
2872.256177	0.085880	0.251327	1228.530640
2872.257066	0.085902	0.251327	1304.897583
2872.258014	0.085902	0.251327	1386.332764
2872.258911	0.085796	0.251327	1463.291748
2872.259802	0.085829	0.251327	1539.765259
2872.260735	0.085902	0.251327	1619.911865
2872.261639	0.085789	0.251327	1697.464722
2872.262544	0.085829	0.251327	1775.139893
2872.263437	0.085833	0.251327	1851.788330
2873.299655	1.100739	0.222718	478.821259
2873.300616	0.658564	0.222718	1111.701660
2873.301531	0.088513	0.222718	1192.691162
2873.302433	0.085869	0.222718	1270.145142
2873.303320	0.085847	0.222718	1346.291626
2873.304285	0.085876	0.222718	1429.162354
2873.305176	0.085792	0.222718	1505.603271
2873.306095	0.085803	0.222718	1584.456421
2873.306988	0.085781	0.222718	1661.059082
2873.307948	0.085803	0.222718	1743.430176
2873.308852	0.085767	0.222718	1820.963135
2873.309744	0.085851	0.222718	1897.542114
2874.323145	1.105371	0.251258	484.152557
2874.324120	0.610144	0.251258	1079.042969
2874.325026	0.088645	0.251258	1159.355347
2874.325947	0.085785	0.251258	1238.363281
2874.326834	0.085814	0.251258	1314.480469
2874.327792	0.085814	0.251258	1396.690430
2874.328684	0.085785	0.251258	1473.210571
2874.329574	0.085811	0.251258	1549.581909
2874.330507	0.085774	0.251258	1629.609009
2874.331420	0.085833	0.251258	1707.974121
2874.332329	0.085781	0.251258	1785.949219
2874.333219	0.085833	0.251258	1862.340210
2875.364061	1.127787	0.222802	507.504089
2875.364972	0.658660	0.222802	1107.542969
2875.365861	0.089810	0.222802	1187.383667
2875.366797	0.085825	0.222802	1267.716064
2875.367720	0.085836	0.222802	1346.942871
2875.368624	0.085778	0.222802	1424.485840
2875.369511	0.085811	0.222802	1500.599854
2875.370452	0.085840	0.222802	1581.375122
2875.371340	0.085723	0.222802	1657.496826
2875.372254	0.085796	0.222802	1735.914307
2875.373161	0.085811	0.222802	1813.744507
2875.374108	0.085858	0.222802	1895.052124
2876.392708	1.128538	0.251069	557.497559
2876.393633	0.567799	0.251069	1082.711670
2876.394542	0.088173	0.251069	1162.860596
2876.395440	0.085748	0.251069	1239.862549
2876.396372	0.085887	0.251069	1319.909668
2876.397271	0.085847	0.251069	1397.086304
2876.398177	0.085880	0.251069	1474.893677
2876.399070	0.085865	0.251069	1551.571533
2876.400012	0.085880	0.251069	1632.470581
2876.400923	0.085822	0.251069	1710.654053
2876.401814	0.085865	0.251069	1787.160156
2876.402744	0.085873	0.251069	1867.021851
2877.427916	1.101460	0.222633	484.642334
2877.428808	0.703451	0.222633	1112.120605
2877.429766	0.088737	0.222633	1197.130249
2877.430670	0.085785	0.222633	1274.679810
2877.431580	0.085895	0.222633	1352.843994
2877.432474	0.085851	0.222633	1429.594604
2877.433409	0.085964	0.222633	1509.971313
2877.434320	0.085785	0.222633	1588.121338
2877.435210	0.085844	0.222633	1664.522095
2877.436137	0.085865	0.222633	1744.119385
2877.437041	0.085840	0.222633	1821.718628
2877.437946	0.085774	0.222633	1899.343994
2878.462738	1.162127	0.250400	591.522400
2878.463650	0.560962	0.250400	1103.119629
2878.464551	0.088055	0.250400	1182.457520
2878.465438	0.085730	0.250400	1258.500000
2878.466378	0.085789	0.250400	1339.141235
2878.467281	0.085829	0.250400	1416.644653
2878.468183	0.085759	0.250400	1493.999512
2878.469092	0.085814	0.250400	1572.004639
2878.470009	0.085847	0.250400	1650.726440
2878.470919	0.085748	0.250400	1728.757324
2878.471809	0.085715	0.250400	1805.043945
2878.472731	0.085737	0.250400	1884.093750
2879.492090	1.156091	0.223161	554.923767
2879.493028	0.564386	0.223161	1084.317871
2879.493948	0.087891	0.223161	1165.177246
2879.494839	0.085825	0.223161	1241.647461
2879.495796	0.085811	0.223161	1323.768188
2879.496725	0.085833	0.223161	1403.506592
2879.497627	0.085884	0.223161	1480.973755
2879.498545	0.085785	0.223161	1559.724365
2879.499484	0.085822	0.223161	1640.310791
2879.500407	0.085880	0.223161	1719.578125
2879.501299	0.085814	0.223161	1796.124390
2879.502228	0.085825	0.223161	1875.855957
2880.532965	1.119423	0.250070	509.337250
2880.533865	0.678098	0.250070	1119.625610
2880.534789	0.089095	0.250070	1201.949829
2880.535730	0.085847	0.250070	1282.732056
2880.536649	0.085829	0.250070	1361.608765
2880.537543	0.085865	0.250070	1438.372559
2880.538490	0.085781	0.250070	1519.607422
2880.539425	0.085825	0.250070	1599.854004
2880.540325	0.085909	0.250070	1677.172485
2880.541247	0.085818	0.250070	1756.296509
2880.542183	0.085851	0.250070	1836.652832
2880.543095	0.085869	0.250070	1914.965454
2881.556169	1.103419	0.225735	483.297607
2881.557065	0.681925	0.225735	1094.302490
2881.558041	0.088608	0.225735	1180.784302
2881.558981	0.085844	0.225735	1261.477173
2881.559882	0.085931	0.225735	1338.901367
2881.560803	0.085796	0.225735	1417.919434
2881.561742	0.085792	0.225735	1498.478394
2881.562659	0.085833	0.225735	1577.186768
2881.563546	0.085844	0.225735	1653.329956
2881.564490	0.085884	0.225735	1734.404297
2881.565425	0.085774	0.225735	1814.602905
2881.566322	0.085950	0.225735	1891.699829
2882.601937	1.099607	0.247540	483.827087
2882.602826	0.708241	0.247540	1113.453369
2882.603785	0.088920	0.247540	1198.727295
2882.604693	0.085836	0.247540	1276.666504
2882.605610	0.085854	0.247540	1355.395020
2882.606505	0.085851	0.247540	1432.231567
2882.607457	0.085781	0.247540	1513.895264
2882.608371	0.085811	0.247540	1592.326050
2882.609264	0.085836	0.247540	1668.977783
2882.610193	0.085748	0.247540	1748.637939
2882.611115	0.085836	0.247540	1827.778931
2882.612032	0.085847	0.247540	1906.500732
2883.621080	1.109861	0.228458	491.668335
2883.621980	0.687085	0.228458	1110.044800
2883.622924	0.090308	0.228458	1195.295166
2883.623838	0.085770	0.228458	1273.689209
2883.624742	0.085800	0.228458	1351.251953
2883.625631	0.085767	0.228458	1427.498413
2883.626579	0.085778	0.228458	1508.815552
2883.627482	0.085789	0.228458	1586.282593
2883.628399	0.085840	0.228458	1664.997681
2883.629286	0.085840	0.228458	1741.137573
2883.630221	0.085840	0.228458	1821.397827
2883.631122	0.085767	0.228458	1898.673584
2884.671429	1.099307	0.247460	478.198425
2884.672324	0.702330	0.247460	1106.784058
2884.673301	0.088345	0.247460	1193.096802
2884.674212	0.085818	0.247460	1271.276855
2884.675133	0.085840	0.247460	1350.335327
2884.676025	0.085803	0.247460	1426.871826
2884.676985	0.085836	0.247460	1509.274536
2884.677887	0.085869	0.247460	1586.728516
2884.678775	0.085884	0.247460	1662.993286
2884.679707	0.085770	0.247460	1742.931152
2884.680614	0.085763	0.247460	1820.718140
2884.681532	0.085807	0.247460	1899.488892
2885.686508	1.135620	0.229272	522.385254
2885.687428	0.642773	0.229272	1113.736816
2885.688348	0.088967	0.229272	1195.586670
2885.689238	0.085789	0.229272	1271.938477
2885.690183	0.085770	0.229272	1352.991333
2885.691083	0.085748	0.229272	1430.164795
2885.691977	0.085844	0.229272	1506.908936
2885.692911	0.085814	0.229272	1587.059448
2885.693824	0.085818	0.229272	1665.411133
2885.694742	0.085822	0.229272	1744.195312
2885.695631	0.085840	0.229272	1820.506958
2885.696584	0.085840	0.229272	1902.312378
2886.739170	1.111937	0.247452	513.714966
2886.740124	0.591826	0.247452	1078.317139
2886.741017	0.088484	0.247452	1157.333252
2886.741905	0.085734	0.247452	1233.464722
2886.742833	0.085847	0.247452	1313.130859
2886.743739	0.085756	0.247452	1390.825439
2886.744657	0.085781	0.247452	1469.572632
2886.745549	0.085796	0.247452	1546.102539
2886.746504	0.085840	0.247452	1628.079590
2886.747407	0.085822	0.247452	1705.576416
2886.748294	0.085880	0.247452	1781.752075
2886.749224	0.085891	0.247452	1861.630859
2887.751628	1.109685	0.229159	490.480804
2887.752608	0.578016	0.229159	1056.936768
2887.753511	0.088341	0.229159	1136.708740
2887.754399	0.085811	0.229159	1212.908447
2887.755320	0.085825	0.229159	1291.953491
2887.756243	0.085800	0.229159	1371.146484
2887.757151	0.085844	0.229159	1449.092407
2887.758041	0.085774	0.229159	1525.431152
2887.758981	0.085950	0.229159	1606.223877
2887.759892	0.085726	0.229159	1684.320557
2887.760793	0.085785	0.229159	1761.612793
2887.761680	0.085774	0.229159	1837.694214
2888.807881	1.099482	0.247641	477.175354
2888.808823	0.652170	0.247641	1091.519897
2888.809733	0.089128	0.247641	1172.626709
2888.810637	0.085770	0.247641	1250.163086
2888.811524	0.085770	0.247641	1326.241333
2888.812467	0.085865	0.247641	1407.212524
2888.813370	0.085818	0.247641	1484.706055
2888.814260	0.085858	0.247641	1561.119873
2888.815171	0.085789	0.247641	1639.273315
2888.816093	0.085789	0.247641	1718.370361
2888.816988	0.085803	0.247641	1795.164307
2888.817879	0.085796	0.247641	1871.608398
2889.817545	1.099959	0.228667	479.581909
2889.818511	0.664468	0.228667	1121.457764
2889.819421	0.088682	0.228667	1202.158081
2889.820321	0.085759	0.228667	1279.341431
2889.821208	0.085858	0.228667	1355.497559
2889.822144	0.085931	0.228667	1435.929321
2889.823061	0.085836	0.228667	1514.641113
2889.823964	0.085917	0.228667	1592.223877
2889.824854	0.085811	0.228667	1668.595215
2889.825805	0.085920	0.228667	1750.305542
2889.826702	0.085778	0.228667	1827.248047
2889.827592	0.085840	0.228667	1903.645508
2890.874828	1.119598	0.247383	491.503693
2890.875805	0.575354	0.247383	1053.624512
2890.876706	0.088282	0.247383	1133.166992
2890.877594	0.085807	0.247383	1209.363525
2890.878527	0.085873	0.247383	1289.482910
2890.879433	0.085822	0.247383	1367.237183
2890.880327	0.085763	0.247383	1443.909302
2890.881216	0.085792	0.247383	1520.178589
2890.882171	0.085814	0.247383	1602.131104
2890.883072	0.085840	0.247383	1679.472778
2890.883975	0.085774	0.247383	1756.926636
2890.884867	0.085811	0.247383	1833.469604
2891.884750	1.120364	0.227374	496.321167
2891.885723	0.584861	0.227374	1065.390747
2891.886621	0.088488	0.227374	1144.852539
2891.887509	0.085745	0.227374	1220.993774
2891.888446	0.085825	0.227374	1301.411987
2891.889350	0.085829	0.227374	1379.001221
2891.890254	0.085887	0.227374	1456.643433
2891.891141	0.085792	0.227374	1532.741089
2891.892072	0.085939	0.227374	1612.750000
2891.892984	0.085851	0.227374	1691.045898
2891.893887	0.085869	0.227374	1768.585693
2891.894781	0.085851	0.227374	1845.336304
2892.942045	1.118104	0.246376	502.028809
2892.942954	0.673458	0.246376	1114.202393
2892.943843	0.089945	0.246376	1194.163574
2892.944760	0.085770	0.246376	1272.814941
2892.945693	0.085858	0.246376	1352.920654
2892.946600	0.085792	0.246376	1430.734253
2892.947489	0.085745	0.246376	1506.961182
2892.948423	0.085880	0.246376	1587.173218
2892.949332	0.085829	0.246376	1665.191650
2892.950231	0.085763	0.246376	1742.292480
2892.951120	0.085836	0.246376	1818.600830
2892.952053	0.085865	0.246376	1898.713379
2893.951463	1.127681	0.226702	516.477722
2893.952389	0.637617	0.226702	1106.911133
2893.953280	0.089216	0.226702	1186.402832
2893.954194	0.085767	0.226702	1264.793457
2893.955122	0.085851	0.226702	1344.463013
2893.956028	0.085822	0.226702	1422.217285
2893.956927	0.085880	0.226702	1499.423462
2893.957855	0.085869	0.226702	1579.109985
2893.958757	0.085836	0.226702	1656.534180
2893.959658	0.085785	0.226702	1733.826416
2893.960550	0.085825	0.226702	1810.382446
2893.961493	0.085811	0.226702	1891.301758
2895.008768	1.167748	0.244708	572.196411
2895.009691	0.578840	0.244708	1106.466064
2895.010617	0.087814	0.244708	1187.781616
2895.011508	0.085759	0.244708	1264.193115
2895.012471	0.085730	0.244708	1346.751099
2895.013373	0.085840	0.244708	1424.178589
2895.014264	0.085712	0.244708	1500.547729
2895.015213	0.085836	0.244708	1582.006226
2895.016130	0.085715	0.244708	1660.607178
2895.017042	0.085811	0.244708	1738.866455
2895.017934	0.085829	0.244708	1815.425781
2895.018873	0.085858	0.244708	1896.046631
2896.018645	1.117592	0.224063	496.210632
2896.019555	0.674041	0.224063	1109.587524
2896.020444	0.090209	0.224063	1189.783081
2896.021383	0.085829	0.224063	1270.376343
2896.022285	0.085822	0.224063	1347.787354
2896.023189	0.085844	0.224063	1425.389893
2896.024078	0.085803	0.224063	1501.668945
2896.025013	0.085833	0.224063	1581.922363
2896.025930	0.085767	0.224063	1660.570312
2896.026831	0.085862	0.224063	1737.931763
2896.027721	0.085862	0.224063	1814.348755
2896.028667	0.085876	0.224063	1895.587891
2897.075411	1.107455	0.243278	490.602509
2897.076326	0.679753	0.243278	1112.576904
2897.077214	0.090146	0.243278	1192.626953
2897.078139	0.085803	0.243278	1271.994873
2897.079061	0.085734	0.243278	1351.041260
2897.079957	0.085822	0.243278	1427.937378
2897.080843	0.085829	0.243278	1503.981689
2897.081783	0.085756	0.243278	1584.591919
2897.082693	0.085829	0.243278	1662.696167
2897.083618	0.085814	0.243278	1742.074341
2897.084515	0.085800	0.243278	1819.036499
2897.085478	0.085833	0.243278	1901.693237
2898.085611	1.131940	0.222915	518.428345
2898.086520	0.655437	0.222915	1114.220581
2898.087410	0.089762	0.222915	1194.108765
2898.088358	0.085876	0.222915	1275.519653
2898.089254	0.085836	0.222915	1352.428833
2898.090173	0.085906	0.222915	1431.376221
2898.091068	0.085876	0.222915	1508.235596
2898.092028	0.085818	0.222915	1590.620728
2898.092932	0.085865	0.222915	1668.243164
2898.093824	0.085822	0.222915	1744.796021
2898.094747	0.085862	0.222915	1824.046509
2898.095664	0.085851	0.222915	1902.771729
2899.141858	1.143779	0.243653	528.426025
2899.142768	0.646677	0.243653	1116.902344
2899.143658	0.089645	0.243653	1196.686157
2899.144601	0.085814	0.243653	1277.609009
2899.145522	0.085811	0.243653	1356.640503
2899.146425	0.085814	0.243653	1434.130737
2899.147313	0.085792	0.243653	1510.314209
2899.148250	0.085840	0.243653	1590.746094
2899.149150	0.085818	0.243653	1667.982178
2899.150073	0.085789	0.243653	1747.165039
2899.150963	0.085800	0.243653	1823.526611
2899.151900	0.085833	0.243653	1903.951660
2900.153288	1.105624	0.220538	485.368866
2900.154241	0.643671	0.220538	1098.786987
2900.155160	0.088521	0.220538	1180.137329
2900.156061	0.085840	0.220538	1257.479004
2900.156954	0.085865	0.220538	1334.156860
2900.157902	0.085906	0.220538	1415.595459
2900.158812	0.085796	0.220538	1493.669678
2900.159713	0.085862	0.220538	1571.031128
2900.160602	0.085847	0.220538	1647.349243
2900.161546	0.085844	0.220538	1728.385498
2900.162442	0.085829	0.220538	1805.288208
2900.163330	0.085880	0.220538	1881.549805
2901.207545	1.149576	0.242900	560.993225
2901.208472	0.587457	0.242900	1105.566162
2901.209376	0.088495	0.242900	1185.565552
2901.210268	0.085814	0.242900	1262.111816
2901.211212	0.085840	0.242900	1343.144653
2901.212116	0.085869	0.242900	1420.770386
2901.213006	0.085803	0.242900	1497.135254
2901.213909	0.085818	0.242900	1574.628784
2901.214846	0.085825	0.242900	1655.046997
2901.215749	0.085752	0.242900	1732.480957
2901.216639	0.085789	0.242900	1808.832764
2901.217571	0.085803	0.242900	1888.801392
2902.221271	1.122360	0.222557	499.450043
2902.222192	0.650812	0.222557	1098.847656
2902.223085	0.089597	0.222557	1178.857910
2902.224021	0.085807	0.222557	1259.173096
2902.224938	0.085884	0.222557	1337.928467
2902.225850	0.085800	0.222557	1416.177612
2902.226749	0.085814	0.222557	1493.324585
2902.227693	0.085887	0.222557	1574.402344
2902.228603	0.085792	0.222557	1652.473267
2902.229500	0.085917	0.222557	1729.540527
2902.230392	0.085814	0.222557	1806.086792
2902.231342	0.085778	0.222557	1887.575439
2903.272909	1.101859	0.243943	480.410614
2903.273852	0.665925	0.243943	1108.378174
2903.274772	0.088590	0.243943	1189.881104
2903.275680	0.085741	0.243943	1267.733887
2903.276569	0.085851	0.243943	1344.055298
2903.277522	0.085909	0.243943	1425.927002
2903.278429	0.085792	0.243943	1503.740601
2903.279332	0.085854	0.243943	1581.267212
2903.280215	0.085862	0.243943	1657.083252
2903.281151	0.085862	0.243943	1737.449951
2903.282053	0.085862	0.243943	1814.897339
2903.282947	0.085763	0.243943	1891.569458
2904.290299	1.173336	0.218923	571.414734
2904.291226	0.575724	0.218923	1105.110840
2904.292128	0.088363	0.218923	1184.814331
2904.293015	0.085898	0.218923	1261.006226
2904.293975	0.085968	0.218923	1343.535522
2904.294876	0.085778	0.218923	1420.821167
2904.295767	0.085829	0.218923	1497.294678
2904.296702	0.085928	0.218923	1577.637085
2904.297604	0.085876	0.218923	1655.097656
2904.298498	0.085836	0.218923	1731.835205
2904.299389	0.085822	0.218923	1808.302246
2904.300300	0.085814	0.218923	1886.479004
2905.337814	1.119199	0.245369	498.043671
2905.338723	0.672869	0.245369	1109.681274
2905.339613	0.090132	0.245369	1189.898560
2905.340574	0.085811	0.245369	1272.362549
2905.341476	0.085803	0.245369	1349.757080
2905.342371	0.085781	0.245369	1426.531250
2905.343317	0.085833	0.245369	1507.728760
2905.344217	0.085887	0.245369	1585.027466
2905.345113	0.085829	0.245369	1661.930176
2905.346007	0.085880	0.245369	1738.707031
2905.346934	0.085858	0.245369	1818.297485
2905.347840	0.085844	0.245369	1896.071655
2906.359798	1.122517	0.219108	541.053162
2906.360714	0.617754	0.219108	1106.915771
2906.361615	0.089011	0.219108	1187.114868
2906.362501	0.085767	0.219108	1263.104126
2906.363447	0.085917	0.219108	1344.381348
2906.364346	0.085891	0.219108	1421.597412
2906.365250	0.085822	0.219108	1499.180054
2906.366139	0.085825	0.219108	1575.478638
2906.367081	0.085928	0.219108	1656.422607
2906.367985	0.085811	0.219108	1733.995361
2906.368882	0.085814	0.219108	1810.970703
2906.369820	0.085840	0.219108	1891.488525
2907.402696	1.109282	0.245748	484.756348
2907.403671	0.584619	0.245748	1054.760010
2907.404576	0.088374	0.245748	1134.738525
2907.405470	0.085767	0.245748	1211.413818
2907.406408	0.085833	0.245748	1291.924683
2907.407309	0.085906	0.245748	1369.325806
2907.408201	0.085920	0.245748	1445.966797
2907.409092	0.085829	0.245748	1522.440308
2907.410040	0.085887	0.245748	1603.861572
2907.410942	0.085778	0.245748	1681.232910
2907.411845	0.085825	0.245748	1758.733032
2907.412737	0.085741	0.245748	1835.213989
2908.429258	1.114457	0.217747	491.475433
2908.430241	0.558179	0.217747	1040.165161
2908.431148	0.088103	0.217747	1120.074585
2908.432043	0.085847	0.217747	1196.907837
2908.432976	0.085887	0.217747	1277.040771
2908.433878	0.085873	0.217747	1354.498047
2908.434774	0.085887	0.217747	1431.453247
2908.435659	0.085807	0.217747	1507.392334
2908.436588	0.085924	0.217747	1587.215820
2908.437505	0.085928	0.217747	1666.011597
2908.438411	0.085844	0.217747	1743.785767
2908.439303	0.085887	0.217747	1820.397339
2909.466831	1.109597	0.247017	489.332306
2909.467754	0.662413	0.247017	1100.739868
2909.468655	0.089542	0.247017	1181.417480
2909.469581	0.085891	0.247017	1260.952637
2909.470483	0.085906	0.247017	1338.439697
2909.471380	0.085840	0.247017	1415.437988
2909.472263	0.085891	0.247017	1491.279785
2909.473200	0.085862	0.247017	1571.732300
2909.474108	0.085884	0.247017	1649.714844
2909.475015	0.085884	0.247017	1727.611450
2909.475910	0.085818	0.247017	1804.418457
2909.476852	0.085935	0.247017	1885.369263
2910.499021	1.112501	0.216196	488.388000
2910.500005	0.574149	0.216196	1053.350830
2910.500914	0.088337	0.216196	1133.649536
2910.501811	0.085844	0.216196	1210.651123
2910.502751	0.085891	0.216196	1291.388794
2910.503655	0.085913	0.216196	1369.054199
2910.504557	0.085854	0.216196	1446.494995
2910.505446	0.085825	0.216196	1522.793579
2910.506385	0.085880	0.216196	1603.435059
2910.507283	0.085825	0.216196	1680.506104
2910.508184	0.085844	0.216196	1757.851074
2910.509070	0.085800	0.216196	1833.869507
2911.530964	1.116277	0.248801	497.859467
2911.531862	0.686217	0.248801	1114.082397
2911.532792	0.089864	0.248801	1197.656372
2911.533699	0.085844	0.248801	1275.516479
2911.534603	0.085785	0.248801	1353.066040
2911.535489	0.085770	0.248801	1429.058472
2911.536434	0.085840	0.248801	1510.177124
2911.537342	0.085898	0.248801	1588.172852
2911.538234	0.085818	0.248801	1664.722412
2911.539152	0.085811	0.248801	1743.496460
2911.540075	0.085887	0.248801	1822.770630
2911.540980	0.085811	0.248801	1900.429199
2912.568775	1.105532	0.216550	483.117554
2912.569734	0.603321	0.216550	1061.702881
2912.570655	0.088473	0.216550	1143.186401
2912.571551	0.085825	0.216550	1220.085815
2912.572486	0.085895	0.216550	1300.397461
2912.573390	0.085858	0.216550	1378.013184
2912.574288	0.085763	0.216550	1455.028320
2912.575174	0.085887	0.216550	1531.124634
2912.576116	0.085833	0.216550	1611.978882
2912.577015	0.085836	0.216550	1689.145630
2912.577913	0.085818	0.216550	1766.210083
2912.578797	0.085756	0.216550	1842.018066
2913.595118	1.118452	0.249063	533.501648
2913.596079	0.564987	0.249063	1076.453735
2913.597002	0.087524	0.249063	1157.238770
2913.597895	0.085712	0.249063	1233.779297
2913.598817	0.085778	0.249063	1312.866211
2913.599743	0.085781	0.249063	1392.299683
2913.600659	0.085734	0.249063	1470.831665
2913.601550	0.085741	0.249063	1547.226807
2913.602492	0.085690	0.249063	1627.946533
2913.603419	0.085675	0.249063	1707.367310
2913.604312	0.085745	0.249063	1783.937256
2913.605219	0.085862	0.249063	1861.813965
2914.638070	1.127637	0.217566	543.520935
2914.639018	0.574497	0.217566	1088.144165
2914.639940	0.087810	0.217566	1169.104980
2914.640829	0.085814	0.217566	1245.393799
2914.641745	0.085851	0.217566	1324.033203
2914.642658	0.085898	0.217566	1402.458496
2914.643561	0.085840	0.217566	1479.971924
2914.644464	0.085869	0.217566	1557.511719
2914.645353	0.085796	0.217566	1633.784302
2914.646297	0.085953	0.217566	1714.924316
2914.647203	0.085898	0.217566	1792.748291
2914.648092	0.085807	0.217566	1869.030640
2915.659727	1.106294	0.249317	487.875610
2915.660624	0.698218	0.249317	1114.177002
2915.661590	0.089333	0.249317	1200.473145
2915.662514	0.085825	0.249317	1279.775635
2915.663434	0.085931	0.249317	1358.832520
2915.664324	0.085778	0.249317	1435.174561
2915.665250	0.085840	0.249317	1514.662231
2915.666181	0.085840	0.249317	1594.579102
2915.667080	0.085887	0.249317	1671.791870
2915.668004	0.085884	0.249317	1751.148437
2915.668946	0.085869	0.249317	1832.037109
2915.669872	0.085796	0.249317	1911.484131
2916.707280	1.113541	0.218428	489.958160
2916.708229	0.618739	0.218428	1077.141479
2916.709192	0.088147	0.218428	1162.026978
2916.710088	0.085825	0.218428	1238.926392
2916.711024	0.085854	0.218428	1319.286133
2916.711954	0.085748	0.218428	1399.031982
2916.712879	0.085873	0.218428	1478.464355
2916.713783	0.085876	0.218428	1556.096680
2916.714697	0.085825	0.218428	1634.540894
2916.715634	0.085898	0.218428	1715.027710
2916.716548	0.085854	0.218428	1793.498779
2916.717441	0.085836	0.218428	1870.150513
2917.724913	1.135723	0.250739	537.196777
2917.725848	0.588699	0.250739	1087.630127
2917.726736	0.088660	0.250739	1166.359863
2917.727655	0.085822	0.250739	1245.229858
2917.728597	0.085880	0.250739	1326.128906
2917.729509	0.085844	0.250739	1404.418213
2917.730396	0.085800	0.250739	1480.522461
2917.731339	0.085774	0.250739	1561.407227
2917.732271	0.085792	0.250739	1641.365601
2917.733170	0.085902	0.250739	1718.591553
2917.734090	0.085774	0.250739	1797.503540
2917.735023	0.085858	0.250739	1877.609131
2918.775274	1.114592	0.220768	512.712402
2918.776186	0.644465	0.220768	1100.464844
2918.777111	0.089414	0.220768	1183.172852
2918.778042	0.085833	0.220768	1263.082886
2918.778976	0.085741	0.220768	1343.164917
2918.779867	0.085803	0.220768	1419.615601
2918.780791	0.085719	0.220768	1498.819946
2918.781735	0.085708	0.220768	1579.728271
2918.782651	0.085803	0.220768	1658.323975
2918.783537	0.085715	0.220768	1734.267822
2918.784484	0.085814	0.220768	1815.533936
2918.785418	0.085759	0.220768	1895.633057
2919.790576	1.122488	0.250086	526.446777
2919.791494	0.636075	0.250086	1110.364014
2919.792381	0.089355	0.250086	1189.622314
2919.793309	0.085840	0.250086	1269.281738
2919.794253	0.085807	0.250086	1350.283447
2919.795176	0.085829	0.250086	1429.503540
2919.796068	0.085792	0.250086	1506.030273
2919.797002	0.085759	0.250086	1586.129395
2919.797924	0.085822	0.250086	1665.256836
2919.798852	0.085796	0.250086	1744.875488
2919.799748	0.085869	0.250086	1821.814209
2919.800682	0.085814	0.250086	1901.964722
2920.842958	1.120415	0.223842	496.343872
2920.843928	0.577317	0.223842	1056.341309
2920.844856	0.087887	0.223842	1137.900391
2920.845755	0.085840	0.223842	1215.070435
2920.846690	0.085862	0.223842	1295.351196
2920.847619	0.085822	0.223842	1375.079346
2920.848534	0.085756	0.223842	1453.545776
2920.849421	0.085748	0.223842	1529.604492
2920.850381	0.085807	0.223842	1611.979126
2920.851303	0.085723	0.223842	1691.015381
2920.852230	0.085851	0.223842	1770.599121
2920.853123	0.085763	0.223842	1847.185425
2921.857261	1.117863	0.246465	528.749023
2921.858174	0.624228	0.246465	1098.669678
2921.859063	0.089132	0.246465	1177.908081
2921.860013	0.085726	0.246465	1259.348145
2921.860932	0.085737	0.246465	1338.140747
2921.861854	0.085825	0.246465	1417.271606
2921.862751	0.085796	0.246465	1494.230469
2921.863699	0.085682	0.246465	1575.457397
2921.864612	0.085708	0.246465	1653.708862
2921.865504	0.085858	0.246465	1730.294312
2921.866453	0.085778	0.246465	1811.697266
2921.867348	0.085811	0.246465	1888.497681
2922.909922	1.132859	0.226319	509.786499
2922.910849	0.635720	0.226319	1099.099121
2922.911748	0.089011	0.226319	1179.120239
2922.912674	0.085807	0.226319	1258.577393
2922.913604	0.085800	0.226319	1338.370972
2922.914535	0.085844	0.226319	1418.291260
2922.915428	0.085778	0.226319	1494.890625
2922.916368	0.085818	0.226319	1575.559448
2922.917282	0.085745	0.226319	1653.930054
2922.918203	0.085800	0.226319	1732.951416
2922.919094	0.085774	0.226319	1809.375977
2922.920023	0.085803	0.226319	1889.087158
2923.924683	1.101932	0.246646	485.952179
2923.925575	0.695969	0.246646	1106.756714
2923.926566	0.088737	0.246646	1194.694702
2923.927482	0.085807	0.246646	1273.293823
2923.928372	0.085858	0.246646	1349.707520
2923.929299	0.085822	0.246646	1429.264038
2923.930234	0.085840	0.246646	1509.524292
2923.931144	0.085778	0.246646	1587.581909
2923.932033	0.085840	0.246646	1663.893555
2923.932976	0.085792	0.246646	1744.795654
2923.933899	0.085880	0.246646	1824.062988
2923.934819	0.085869	0.246646	1903.062622
2924.976135	1.154403	0.228366	576.047119
2924.977046	0.589709	0.228366	1113.272461
2924.977964	0.088169	0.228366	1194.211548
2924.978862	0.085792	0.228366	1271.252930
2924.979801	0.085833	0.228366	1351.849609
2924.980722	0.085818	0.228366	1430.887817
2924.981622	0.085862	0.228366	1508.163452
2924.982547	0.085792	0.228366	1587.521240
2924.983465	0.085822	0.228366	1666.305420
2924.984383	0.085825	0.228366	1745.092896
2924.985267	0.085792	0.228366	1820.933228
2924.986223	0.085862	0.228366	1903.017090
2925.992453	1.134133	0.244217	561.395996
2925.993373	0.563884	0.244217	1080.169434
2925.994307	0.087561	0.244217	1161.951416
2925.995196	0.085847	0.244217	1238.269531
2925.996132	0.085752	0.244217	1318.533325
2925.997051	0.085833	0.244217	1397.413452
2925.997977	0.085847	0.244217	1476.907959
2925.998868	0.085847	0.244217	1553.397827
2925.999822	0.085807	0.244217	1635.257568
2926.000744	0.085770	0.244217	1714.337769
2926.001638	0.085847	0.244217	1791.085083
2926.002571	0.085854	0.244217	1871.187378
2927.042291	1.117375	0.230686	532.988098
2927.043221	0.601794	0.230686	1092.656982
2927.044141	0.088279	0.230686	1173.873535
2927.045031	0.085873	0.230686	1250.300293
2927.045971	0.085756	0.230686	1330.910522
2927.046890	0.085748	0.230686	1409.713257
2927.047807	0.085895	0.230686	1488.478760
2927.048702	0.085825	0.230686	1565.292358
2927.049650	0.085730	0.230686	1646.564331
2927.050573	0.085825	0.230686	1725.781006
2927.051499	0.085865	0.230686	1805.292480
2927.052388	0.085756	0.230686	1881.529175
2928.060377	1.110388	0.241252	496.343506
2928.061279	0.680526	0.241252	1110.178101
2928.062217	0.090154	0.241252	1194.742432
2928.063126	0.085785	0.241252	1272.720947
2928.064046	0.085840	0.241252	1351.693604
2928.064935	0.085818	0.241252	1427.985718
2928.065879	0.085873	0.241252	1509.049683
2928.066786	0.085869	0.241252	1586.932983
2928.067704	0.085796	0.241252	1665.693604
2928.068591	0.085818	0.241252	1741.814087
2928.069530	0.085752	0.241252	1822.335205
2928.070454	0.085884	0.241252	1901.691772
2929.108425	1.102950	0.230940	481.989349
2929.109361	0.657847	0.230940	1097.733765
2929.110318	0.088517	0.230940	1182.444336
2929.111250	0.085789	0.230940	1262.399292
2929.112138	0.085748	0.230940	1338.543823
2929.113079	0.085822	0.230940	1419.301880
2929.114024	0.085814	0.230940	1500.396362
2929.114921	0.085763	0.230940	1577.325684
2929.115840	0.085701	0.230940	1656.084595
2929.116767	0.085752	0.230940	1735.576660
2929.117698	0.085715	0.230940	1815.377686
2929.118594	0.085785	0.230940	1892.240967
2930.128073	1.098750	0.239524	481.252502
2930.129062	0.565012	0.239524	1040.049561
2930.129976	0.087979	0.239524	1120.461914
2930.130897	0.085756	0.239524	1199.442871
2930.131785	0.085770	0.239524	1275.606812
2930.132728	0.085789	0.239524	1356.505371
2930.133648	0.085675	0.239524	1435.326416
2930.134535	0.085818	0.239524	1511.446899
2930.135474	0.085774	0.239524	1591.988647
2930.136382	0.085767	0.239524	1669.864746
2930.137301	0.085763	0.239524	1748.680908
2930.138194	0.085789	0.239524	1825.290039
2931.174862	1.112963	0.230928	493.042419
2931.175844	0.565957	0.230928	1048.812256
2931.176762	0.087821	0.230928	1129.432007
2931.177661	0.085865	0.230928	1206.625122
2931.178585	0.085807	0.230928	1285.910645
2931.179512	0.085814	0.230928	1365.460449
2931.180434	0.085803	0.230928	1444.571045
2931.181324	0.085847	0.230928	1520.974976
2931.182269	0.085789	0.230928	1602.045166
2931.183165	0.085778	0.230928	1678.901855
2931.184076	0.085847	0.230928	1757.108643
2931.184972	0.085767	0.230928	1833.955566
2932.195562	1.144050	0.238360	523.975037
2932.196476	0.631000	0.238360	1100.708740
2932.197407	0.088480	0.238360	1183.083862
2932.198296	0.085701	0.238360	1259.271729
2932.199264	0.085792	0.238360	1342.318604
2932.200184	0.085701	0.238360	1421.163208
2932.201075	0.085891	0.238360	1497.692139
2932.202011	0.085851	0.238360	1578.048584
2932.202931	0.085781	0.238360	1656.967285
2932.203843	0.085836	0.238360	1735.249878
2932.204731	0.085752	0.238360	1811.397583
2932.205669	0.085767	0.238360	1891.846680
2933.240294	1.131522	0.229397	523.894775
2933.241235	0.608302	0.229397	1096.306885
2933.242124	0.088737	0.229397	1175.193726
2933.243069	0.085807	0.229397	1256.281250
2933.244008	0.085730	0.229397	1336.781738
2933.244906	0.085730	0.229397	1413.767212
2933.245824	0.085759	0.229397	1492.494263
2933.246769	0.085800	0.229397	1573.574829
2933.247688	0.085822	0.229397	1652.444824
2933.248574	0.085840	0.229397	1728.498901
2933.249519	0.085792	0.229397	1809.572510
2933.250445	0.085814	0.229397	1889.036499
2934.262767	1.148566	0.237018	532.934448
2934.263707	0.602596	0.237018	1099.375122
2934.264596	0.088755	0.237018	1178.278198
2934.265524	0.085734	0.237018	1257.838989
2934.266466	0.085822	0.237018	1338.682861
2934.267378	0.085829	0.237018	1416.958740
2934.268268	0.085774	0.237018	1493.297485
2934.269214	0.085741	0.237018	1574.408447
2934.270148	0.085778	0.237018	1654.524658
2934.271067	0.085858	0.237018	1733.428345
2934.271953	0.085756	0.237018	1809.407837
2934.272896	0.085822	0.237018	1890.337524
2935.307971	1.094059	0.229397	471.539368
2935.308910	0.657422	0.229397	1088.858521
2935.309860	0.088455	0.229397	1172.890381
2935.310773	0.085825	0.229397	1251.248779
2935.311663	0.085792	0.229397	1327.603882
2935.312608	0.085792	0.229397	1408.677490
2935.313540	0.085898	0.229397	1488.734863
2935.314435	0.085862	0.229397	1565.581177
2935.315358	0.085833	0.229397	1644.804565
2935.316276	0.085781	0.229397	1723.551758
2935.317210	0.085789	0.229397	1803.678223
2935.318106	0.085844	0.229397	1880.593994
