time (s)	coil I (A)	last det (V)	int current (uC)
5880.954871	1.159142	0.037459	562.183777
5880.955830	1.603751	0.037459	2100.181152
5880.956754	1.584335	0.037459	3564.106445
5880.957651	1.543136	0.037459	4948.299316
5880.958603	1.500428	0.037459	6376.707031
5880.959541	0.924174	0.037459	7243.582031
5880.960441	0.100690	0.037459	7334.202637
5880.961357	0.085902	0.037459	7412.889160
5880.962294	0.085865	0.037459	7493.345215
5880.963214	0.085961	0.037459	7572.429199
5880.964113	0.085862	0.037459	7649.619141
5880.965061	0.085906	0.037459	7731.057617
5880.965992	0.085796	0.037459	7810.933594
5880.966891	0.085895	0.037459	7888.152832
5880.967800	0.085876	0.037459	7966.214355
5880.968728	0.085964	0.037459	8045.989258
5881.993185	1.105595	0.037165	495.306335
5881.994080	1.600027	0.037165	1927.330322
5881.995041	1.586726	0.037165	3452.174072
5881.995976	1.544136	0.037165	4895.940918
5881.996875	1.503369	0.037165	6247.469727
5881.997804	1.045210	0.037165	7218.469727
5881.998749	0.108538	0.037165	7321.037598
5881.999667	0.085781	0.037165	7399.784668
5882.000563	0.085884	0.037165	7476.736328
5882.001497	0.085865	0.037165	7556.934570
5882.002438	0.085873	0.037165	7637.740723
5882.003351	0.085880	0.037165	7716.149414
5882.004240	0.085851	0.037165	7792.470703
5882.005173	0.085887	0.037165	7872.603516
5882.006104	0.085854	0.037165	7952.534180
5882.007002	0.085873	0.037165	8029.647949
5883.024899	1.171732	0.037032	568.290100
5883.025832	1.603612	0.037032	2064.460205
5883.026729	1.586155	0.037032	3487.241211
5883.027655	1.543766	0.037032	4916.768555
5883.028601	1.500937	0.037032	6336.655273
5883.029529	0.978237	0.037032	7244.459473
5883.030423	0.106033	0.037032	7339.252930
5883.031372	0.085902	0.037032	7420.773926
5883.032305	0.085880	0.037032	7500.899902
5883.033203	0.085942	0.037032	7578.076172
5883.034121	0.085906	0.037032	7656.937500
5883.035065	0.085898	0.037032	7738.025391
5883.035995	0.085909	0.037032	7817.921387
5883.036897	0.085854	0.037032	7895.362305
5883.037821	0.085891	0.037032	7974.725586
5883.038751	0.085939	0.037032	8054.648437
5884.058097	1.121144	0.037185	524.695251
5884.059014	1.602480	0.037185	1994.169678
5884.059913	1.587598	0.037185	3421.419922
5884.060846	1.545890	0.037185	4863.735352
5884.061788	1.502758	0.037185	6279.333008
5884.062717	1.013181	0.037185	7220.578125
5884.063604	0.111108	0.037185	7319.131348
5884.064554	0.085847	0.037185	7400.686035
5884.065492	0.085909	0.037185	7481.269043
5884.066390	0.085957	0.037185	7558.458496
5884.067303	0.085895	0.037185	7636.880371
5884.068227	0.085811	0.037185	7716.169434
5884.069164	0.085836	0.037185	7796.598145
5884.070065	0.085902	0.037185	7873.996094
5884.070984	0.085906	0.037185	7952.943359
5884.071925	0.085891	0.037185	8033.767090
5885.094900	1.118705	0.037379	525.791260
5885.095803	1.601638	0.037379	1972.070557
5885.096699	1.587623	0.037379	3394.581055
5885.097646	1.545297	0.037379	4857.977051
5885.098587	1.502809	0.037379	6272.120117
5885.099497	1.043412	0.037379	7221.625000
5885.100413	0.113401	0.037379	7325.500000
5885.101353	0.085789	0.037379	7406.141113
5885.102268	0.085825	0.037379	7484.671387
5885.103157	0.085887	0.037379	7561.025391
5885.104103	0.085935	0.037379	7642.319824
5885.105034	0.085847	0.037379	7722.243652
5885.105958	0.085898	0.037379	7801.613770
5885.106847	0.085862	0.037379	7877.944824
5885.107763	0.085844	0.037379	7956.577637
5885.108704	0.085862	0.037379	8037.373535
5886.122451	1.100603	0.037939	487.567108
5886.123347	1.599265	0.037939	1920.508667
5886.124299	1.587103	0.037939	3431.430908
5886.125231	1.544670	0.037939	4871.063477
5886.126135	1.504098	0.037939	6230.768066
5886.127072	1.052769	0.037939	7217.212402
5886.128017	0.109772	0.037939	7320.946777
5886.128934	0.085898	0.037939	7399.715820
5886.129827	0.085928	0.037939	7476.449219
5886.130773	0.085891	0.037939	7557.702148
5886.131706	0.085862	0.037939	7637.811035
5886.132609	0.085851	0.037939	7715.334473
5886.133515	0.085902	0.037939	7793.161621
5886.134449	0.085895	0.037939	7873.387207
5886.135379	0.085909	0.037939	7953.283203
5886.136275	0.085917	0.037939	8030.264648
5887.165401	1.107854	0.039518	494.102875
5887.166298	1.599921	0.039518	1929.231689
5887.167240	1.587469	0.039518	3424.627930
5887.168198	1.544169	0.039518	4903.941406
5887.169124	1.502179	0.039518	6294.958984
5887.170031	1.018440	0.039518	7218.684082
5887.170960	0.107311	0.039518	7318.375977
5887.171890	0.085789	0.039518	7398.159180
5887.172787	0.085836	0.039518	7475.154297
5887.173704	0.085844	0.039518	7553.872559
5887.174641	0.085818	0.039518	7634.283691
5887.175560	0.085950	0.039518	7713.271484
5887.176447	0.085822	0.039518	7789.395020
5887.177399	0.085803	0.039518	7871.079590
5887.178339	0.085814	0.039518	7951.745117
5887.179238	0.085961	0.039518	8029.023926
5888.186863	1.121843	0.038668	526.144531
5888.187774	1.601876	0.038668	1985.453857
5888.188705	1.586693	0.038668	3462.665039
5888.189599	1.545725	0.038668	4844.543457
5888.190545	1.503160	0.038668	6266.533203
5888.191501	1.001689	0.038668	7224.148437
5888.192390	0.107834	0.038668	7320.013184
5888.193310	0.085770	0.038668	7398.921875
5888.194240	0.085891	0.038668	7478.800781
5888.195180	0.085829	0.038668	7559.479980
5888.196076	0.085876	0.038668	7636.425293
5888.196989	0.085840	0.038668	7714.796875
5888.197923	0.085898	0.038668	7795.025879
5888.198834	0.085873	0.038668	7873.255859
5888.199724	0.085869	0.038668	7949.679199
5888.200671	0.085862	0.038668	8030.990234
5889.235421	1.115673	0.040799	500.936981
5889.236323	1.600507	0.040799	1944.593994
5889.237286	1.586327	0.040799	3472.226807
5889.238213	1.544282	0.040799	4903.776367
5889.239110	1.503592	0.040799	6252.499023
5889.240045	1.025090	0.040799	7210.958496
5889.240984	0.107988	0.040799	7312.359375
5889.241899	0.085891	0.040799	7390.949707
5889.242795	0.085895	0.040799	7467.911621
5889.243750	0.085887	0.040799	7549.934082
5889.244687	0.085767	0.040799	7630.297363
5889.245588	0.085935	0.040799	7707.724609
5889.246506	0.085851	0.040799	7786.535645
5889.247438	0.085847	0.040799	7866.545410
5889.248354	0.085873	0.040799	7945.205078
5889.249245	0.085887	0.040799	8021.730957
5890.251717	1.095934	0.037967	477.827148
5890.252676	1.599353	0.037967	2011.606689
5890.253601	1.586177	0.037967	3478.820312
5890.254520	1.544194	0.037967	4897.935059
5890.255419	1.503468	0.037967	6249.552734
5890.256373	1.013401	0.037967	7216.337402
5890.257286	0.107593	0.037967	7314.569824
5890.258204	0.085748	0.037967	7393.286621
5890.259094	0.085917	0.037967	7469.752441
5890.260042	0.085840	0.037967	7551.128418
5890.260969	0.085851	0.037967	7630.711914
5890.261859	0.085840	0.037967	7707.109375
5890.262812	0.085829	0.037967	7788.904297
5890.263728	0.085847	0.037967	7867.540527
5890.264650	0.085906	0.037967	7946.745605
5890.265539	0.085898	0.037967	8023.109375
5891.304909	1.100449	0.040537	484.197662
5891.305873	1.603143	0.040537	2029.627808
5891.306793	1.585642	0.040537	3488.418457
5891.307726	1.543700	0.040537	4928.690430
5891.308626	1.502219	0.040537	6280.687500
5891.309586	0.979200	0.040537	7220.719727
5891.310476	0.106824	0.040537	7315.792969
5891.311363	0.085789	0.040537	7391.887207
5891.312307	0.085854	0.040537	7472.934082
5891.313201	0.085994	0.040537	7549.812500
5891.314120	0.085906	0.040537	7628.759766
5891.315025	0.085884	0.040537	7706.484375
5891.315970	0.085865	0.040537	7787.627441
5891.316882	0.085789	0.040537	7865.866699
5891.317779	0.085895	0.040537	7942.914551
5891.318704	0.085840	0.040537	8022.316406
5892.318203	1.116914	0.038205	542.820251
5892.319136	1.603502	0.038205	2038.887695
5892.320053	1.585444	0.038205	3492.740234
5892.320953	1.544626	0.038205	4882.903809
5892.321906	1.501498	0.038205	6313.831055
5892.322831	0.985719	0.038205	7225.621094
5892.323727	0.107142	0.038205	7321.620605
5892.324613	0.085770	0.038205	7397.613281
5892.325560	0.085917	0.038205	7478.976562
5892.326463	0.085876	0.038205	7556.522949
5892.327353	0.085865	0.038205	7632.943359
5892.328284	0.085953	0.038205	7712.965820
5892.329193	0.085854	0.038205	7791.007324
5892.330093	0.085931	0.038205	7868.345703
5892.330982	0.085920	0.038205	7944.729004
5892.331918	0.085939	0.038205	8025.167480
5893.371862	1.109440	0.040751	487.044037
5893.372781	1.601081	0.040751	1958.437988
5893.373693	1.588356	0.040751	3407.018555
5893.374593	1.546692	0.040751	4799.041016
5893.375540	1.504413	0.040751	6223.719727
5893.376452	1.092488	0.040751	7220.068359
5893.377341	0.122747	0.040751	7329.189941
5893.378281	0.085844	0.040751	7409.882812
5893.379187	0.085909	0.040751	7487.716797
5893.380093	0.085884	0.040751	7565.527344
5893.380987	0.085865	0.040751	7642.291016
5893.381924	0.086012	0.040751	7722.884277
5893.382831	0.085836	0.040751	7800.737793
5893.383736	0.085928	0.040751	7878.502441
5893.384622	0.085957	0.040751	7954.660156
5893.385560	0.085950	0.040751	8035.280762
5894.386139	1.122598	0.038132	505.168976
5894.387049	1.601038	0.038132	1962.113037
5894.387966	1.587847	0.038132	3418.168457
5894.388892	1.545963	0.038132	4849.730469
5894.389798	1.504772	0.038132	6213.053711
5894.390695	1.121250	0.038132	7218.814941
5894.391643	0.120765	0.038132	7333.300293
5894.392546	0.085789	0.038132	7410.767578
5894.393445	0.085917	0.038132	7488.006836
5894.394335	0.085931	0.038132	7564.485840
5894.395277	0.086060	0.038132	7645.553711
5894.396178	0.085946	0.038132	7722.991211
5894.397069	0.085909	0.038132	7799.536621
5894.397996	0.085953	0.038132	7879.215332
5894.398916	0.085917	0.038132	7958.258789
5894.399811	0.085942	0.038132	8035.177246
5895.436744	1.094308	0.039687	476.023926
5895.437635	1.598752	0.039687	1900.512329
5895.438599	1.587576	0.039687	3430.935303
5895.439505	1.546523	0.039687	4832.085449
5895.440398	1.505867	0.039687	6176.824219
5895.441360	1.081139	0.039687	7216.879883
5895.442263	0.118436	0.039687	7323.827637
5895.443174	0.085854	0.039687	7402.041016
5895.444062	0.085851	0.039687	7478.276367
5895.444997	0.085961	0.039687	7558.649414
5895.445906	0.085902	0.039687	7636.734375
5895.446807	0.085928	0.039687	7714.155273
5895.447692	0.085902	0.039687	7790.178711
5895.448641	0.085931	0.039687	7871.727539
5895.449538	0.085898	0.039687	7948.778320
5895.450430	0.085873	0.039687	8025.376953
5896.456653	1.094824	0.038342	474.058868
5896.457597	1.600785	0.038342	1985.199829
5896.458520	1.587220	0.038342	3450.204346
5896.459429	1.546051	0.038342	4855.564453
5896.460329	1.504644	0.038342	6209.743652
5896.461296	1.038431	0.038342	7213.906738
5896.462202	0.111976	0.038342	7315.357422
5896.463096	0.085825	0.038342	7392.084961
5896.464025	0.086034	0.038342	7472.010254
5896.464936	0.085975	0.038342	7550.333984
5896.465839	0.085891	0.038342	7627.893555
5896.466727	0.085880	0.038342	7704.155273
5896.467661	0.085961	0.038342	7784.442383
5896.468572	0.085869	0.038342	7862.668945
5896.469478	0.085928	0.038342	7940.519531
5896.470366	0.085891	0.038342	8016.791016
5897.501147	1.115328	0.039896	494.090485
5897.502070	1.601027	0.039896	1971.838013
5897.502976	1.588132	0.039896	3410.685791
5897.503910	1.546498	0.039896	4855.114746
5897.504835	1.503713	0.039896	6246.049805
5897.505763	1.055109	0.039896	7225.190430
5897.506655	0.116653	0.039896	7329.244629
5897.507594	0.085880	0.039896	7409.886230
5897.508493	0.085876	0.039896	7487.089355
5897.509387	0.085887	0.039896	7563.872559
5897.510274	0.085862	0.039896	7640.032227
5897.511207	0.085935	0.039896	7720.209473
5897.512110	0.085953	0.039896	7797.825195
5897.513007	0.085931	0.039896	7874.905762
5897.513940	0.085953	0.039896	7955.100098
5897.514840	0.085935	0.039896	8032.441406
5898.527241	1.139374	0.038805	567.408142
5898.528160	1.603403	0.038805	2040.935791
5898.529067	1.586067	0.038805	3479.498535
5898.529961	1.545370	0.038805	4861.059082
5898.530918	1.502303	0.038805	6298.763672
5898.531825	1.023241	0.038805	7226.843262
5898.532724	0.110874	0.038805	7326.519043
5898.533611	0.085873	0.038805	7402.687988
5898.534564	0.085928	0.038805	7484.577148
5898.535466	0.085917	0.038805	7562.074219
5898.536363	0.085917	0.038805	7639.141602
5898.537292	0.085909	0.038805	7718.951660
5898.538196	0.085928	0.038805	7796.630371
5898.539091	0.085814	0.038805	7873.434082
5898.539978	0.085854	0.038805	7949.586914
5898.540906	0.085979	0.038805	8029.375488
5899.565523	1.104130	0.038688	485.817047
5899.566471	1.600247	0.038688	2002.850708
5899.567410	1.586001	0.038688	3492.105469
5899.568325	1.544169	0.038688	4905.019531
5899.569227	1.503073	0.038688	6260.791016
5899.570178	1.008072	0.038688	7219.467773
5899.571117	0.105099	0.038688	7318.155762
5899.572017	0.085807	0.038688	7395.381836
5899.572937	0.085865	0.038688	7474.377930
5899.573870	0.085825	0.038688	7554.452637
5899.574791	0.085814	0.038688	7633.487305
5899.575689	0.085851	0.038688	7710.581543
5899.576606	0.085931	0.038688	7789.380859
5899.577529	0.085920	0.038688	7868.685547
5899.578418	0.085898	0.038688	7945.049316
5899.579317	0.085833	0.038688	8022.212891
5900.598226	1.110908	0.039719	489.910553
5900.599121	1.599906	0.039719	1921.826416
5900.600092	1.586506	0.039719	3462.324219
5900.601039	1.544019	0.039719	4924.509766
5900.601935	1.502699	0.039719	6270.928223
5900.602869	1.009285	0.039719	7213.600098
5900.603813	0.105934	0.039719	7313.601562
5900.604730	0.085811	0.039719	7392.290039
5900.605625	0.085928	0.039719	7469.195312
5900.606578	0.085796	0.039719	7550.958984
5900.607519	0.085840	0.039719	7631.734375
5900.608425	0.085876	0.039719	7709.538574
5900.609343	0.085851	0.039719	7788.349609
5900.610271	0.085917	0.039719	7868.080566
5900.611200	0.085869	0.039719	7947.853027
5900.612099	0.085920	0.039719	8025.095703
5901.630463	1.147423	0.038567	550.763123
5901.631364	1.602521	0.038567	1994.634277
5901.632262	1.587096	0.038567	3419.846191
5901.633227	1.543784	0.038567	4909.597656
5901.634167	1.501212	0.038567	6320.737305
5901.635078	1.001561	0.038567	7233.159668
5901.636010	0.105209	0.038567	7331.214355
5901.636948	0.085789	0.038567	7411.684082
5901.637860	0.085909	0.038567	7490.033691
5901.638750	0.085876	0.038567	7566.463867
5901.639684	0.085939	0.038567	7646.730469
5901.640617	0.085884	0.038567	7726.859863
5901.641509	0.085880	0.038567	7803.464844
5901.642430	0.085902	0.038567	7882.580566
5901.643368	0.085909	0.038567	7963.163574
5901.644288	0.085950	0.038567	8042.237305
5902.669308	1.153550	0.039038	557.164551
5902.670250	1.603374	0.039038	2067.542969
5902.671183	1.584734	0.039038	3546.099609
5902.672074	1.543348	0.039038	4921.223145
5902.673023	1.500850	0.039038	6345.529297
5902.673965	0.946747	0.039038	7237.364746
5902.674863	0.102557	0.039038	7329.461426
5902.675788	0.085829	0.039038	7408.853027
5902.676719	0.085935	0.039038	7488.858398
5902.677636	0.085898	0.039038	7567.627441
5902.678528	0.085873	0.039038	7644.226074
5902.679469	0.085968	0.039038	7725.122070
5902.680405	0.085862	0.039038	7805.488770
5902.681306	0.085924	0.039038	7882.906250
5902.682215	0.085931	0.039038	7961.018066
5902.683147	0.085898	0.039038	8041.075195
5903.694798	1.106829	0.038200	485.897736
5903.695769	1.601916	0.038200	2041.358521
5903.696694	1.585748	0.038200	3508.175781
5903.697591	1.544971	0.038200	4894.014648
5903.698523	1.502721	0.038200	6294.550781
5903.699475	0.985133	0.038200	7232.397461
5903.700392	0.104092	0.038200	7327.849609
5903.701286	0.085847	0.038200	7404.597168
5903.702223	0.085873	0.038200	7485.060059
5903.703158	0.085822	0.038200	7565.303223
5903.704054	0.085979	0.038200	7642.340332
5903.704971	0.085891	0.038200	7721.102539
5903.705903	0.085902	0.038200	7801.163086
5903.706832	0.085865	0.038200	7880.932129
5903.707718	0.085880	0.038200	7957.021973
5903.708650	0.085942	0.038200	8037.120117
5904.739319	1.138605	0.040553	536.282837
5904.740221	1.601792	0.040553	1981.099243
5904.741117	1.587708	0.040553	3403.685059
5904.742078	1.544894	0.040553	4888.328125
5904.743005	1.502509	0.040553	6281.153320
5904.743916	1.038640	0.040553	7227.354492
5904.744840	0.112083	0.040553	7330.918945
5904.745780	0.085800	0.040553	7411.570312
5904.746692	0.085851	0.040553	7489.866211
5904.747586	0.085869	0.040553	7566.633301
5904.748546	0.085822	0.040553	7649.021973
5904.749476	0.085858	0.040553	7728.870117
5904.750375	0.085909	0.040553	7806.102539
5904.751290	0.085920	0.040553	7884.719727
5904.752220	0.085836	0.040553	7964.547363
5904.753153	0.085781	0.040553	8044.581055
5905.761288	1.161885	0.037774	582.104187
5905.762207	1.603579	0.037774	2055.793213
5905.763134	1.585082	0.037774	3525.164062
5905.764036	1.543865	0.037774	4917.729980
5905.764987	1.500864	0.037774	6345.051758
5905.765923	0.954280	0.037774	7238.257812
5905.766812	0.103704	0.037774	7330.450195
5905.767727	0.085800	0.037774	7408.957031
5905.768683	0.085898	0.037774	7491.076172
5905.769607	0.085763	0.037774	7570.321289
5905.770495	0.085869	0.037774	7646.573242
5905.771433	0.085756	0.037774	7727.012207
5905.772349	0.085778	0.037774	7805.584473
5905.773266	0.085876	0.037774	7884.333008
5905.774158	0.085814	0.037774	7960.879395
5905.775107	0.085873	0.037774	8042.372559
5906.807811	1.155406	0.041355	576.547852
5906.808730	1.603301	0.041355	2049.981445
5906.809658	1.585342	0.041355	3521.178711
5906.810552	1.544392	0.041355	4901.865234
5906.811496	1.501344	0.041355	6319.133789
5906.812427	0.983507	0.041355	7234.778809
5906.813318	0.106659	0.041355	7329.812012
5906.814217	0.085833	0.041355	7406.975586
5906.815131	0.085898	0.041355	7485.486816
5906.816056	0.085847	0.041355	7564.895508
5906.816960	0.085902	0.041355	7642.550781
5906.817896	0.085770	0.041355	7722.831543
5906.818796	0.085847	0.041355	7800.093750
5906.819720	0.085924	0.041355	7879.487793
5906.820609	0.085887	0.041355	7955.841797
5906.821556	0.085865	0.041355	8037.156250
5907.826635	1.098234	0.039312	482.124603
5907.827604	1.602594	0.039312	2035.038208
5907.828508	1.586521	0.039312	3469.253174
5907.829404	1.545707	0.039312	4854.206543
5907.830316	1.504358	0.039312	6226.181152
5907.831268	1.045887	0.039312	7221.866211
5907.832169	0.112885	0.039312	7323.575195
5907.833062	0.085792	0.039312	7400.187500
5907.834010	0.085887	0.039312	7481.608887
5907.834911	0.085902	0.039312	7559.006836
5907.835834	0.085829	0.039312	7638.227051
5907.836721	0.085884	0.039312	7714.405762
5907.837658	0.085946	0.039312	7794.937012
5907.838557	0.085880	0.039312	7872.143066
5907.839446	0.085847	0.039312	7948.461426
5907.840364	0.085909	0.039312	8027.326172
5908.875725	1.096040	0.043308	480.065521
5908.876622	1.599192	0.043308	1914.540649
5908.877591	1.587136	0.043308	3452.475586
5908.878494	1.546069	0.043308	4848.576172
5908.879391	1.504984	0.043308	6198.546875
5908.880339	1.057482	0.043308	7201.039551
5908.881259	0.114781	0.043308	7306.638672
5908.882158	0.085715	0.043308	7383.696777
5908.883045	0.085880	0.043308	7459.872559
5908.883979	0.085825	0.043308	7540.033203
5908.884893	0.085887	0.043308	7618.534180
5908.885810	0.085836	0.043308	7697.246094
5908.886697	0.085840	0.043308	7773.386230
5908.887647	0.085869	0.043308	7854.961914
5908.888550	0.085895	0.043308	7932.524902
5908.889436	0.085869	0.043308	8008.604980
5909.892052	1.117918	0.039679	499.709137
5909.892945	1.600038	0.039679	1928.542847
5909.893925	1.586191	0.039679	3483.010254
5909.894828	1.545077	0.039679	4878.214844
5909.895723	1.504395	0.039679	6224.647949
5909.896686	1.035260	0.039679	7221.603516
5909.897585	0.112083	0.039679	7322.365723
5909.898489	0.085844	0.039679	7399.968262
5909.899379	0.085851	0.039679	7476.375488
5909.900327	0.085898	0.039679	7557.807129
5909.901226	0.085865	0.039679	7635.000000
5909.902121	0.085968	0.039679	7711.941406
5909.903039	0.085876	0.039679	7790.775879
5909.903955	0.085953	0.039679	7869.509277
5909.904852	0.085920	0.039679	7946.580078
5909.905776	0.085906	0.039679	8025.957031
5910.943749	1.162196	0.044126	577.611450
5910.944672	1.602997	0.044126	2057.177490
5910.945603	1.585060	0.044126	3532.868164
5910.946500	1.543630	0.044126	4917.504883
5910.947456	1.500780	0.044126	6352.250488
5910.948368	0.981764	0.044126	7247.619141
5910.949255	0.106703	0.044126	7342.264648
5910.950186	0.085851	0.044126	7422.191895
5910.951091	0.085917	0.044126	7499.946777
5910.952004	0.085833	0.044126	7578.312012
5910.952903	0.085811	0.044126	7655.455566
5910.953878	0.085851	0.044126	7739.160156
5910.954790	0.085865	0.044126	7817.469238
5910.955714	0.085836	0.044126	7896.781738
5910.956601	0.085964	0.044126	7973.032227
5910.957539	0.085818	0.044126	8053.529297
5911.959497	1.095875	0.038913	479.993378
5911.960449	1.602513	0.038913	2005.586182
5911.961363	1.586580	0.038913	3455.719971
5911.962291	1.544857	0.038913	4889.347656
5911.963189	1.503534	0.038913	6239.520996
5911.964139	1.032550	0.038913	7220.443359
5911.965030	0.113163	0.038913	7321.271484
5911.965916	0.085865	0.038913	7397.348145
5911.966866	0.085909	0.038913	7478.961914
5911.967757	0.085895	0.038913	7555.494141
5911.968676	0.085961	0.038913	7634.492187
5911.969572	0.085895	0.038913	7711.454102
5911.970498	0.085924	0.038913	7791.020020
5911.971409	0.085884	0.038913	7869.260254
5911.972331	0.085917	0.038913	7948.475586
5911.973222	0.085898	0.038913	8025.011230
5913.011160	1.115321	0.043147	500.779144
5913.012058	1.600649	0.043147	1938.162354
5913.013007	1.587667	0.043147	3444.858398
5913.013933	1.544989	0.043147	4875.518066
5913.014843	1.503875	0.043147	6244.043945
5913.015745	1.079509	0.043147	7217.761230
5913.016693	0.111167	0.043147	7323.147461
5913.017594	0.085814	0.043147	7400.465820
5913.018483	0.085939	0.043147	7476.865234
5913.019406	0.085931	0.043147	7556.179687
5913.020325	0.085822	0.043147	7635.049805
5913.021230	0.085964	0.043147	7712.847656
5913.022125	0.085891	0.043147	7789.720215
5913.023053	0.085833	0.043147	7869.372559
5913.023973	0.085884	0.043147	7948.385742
5913.024873	0.085891	0.043147	8025.687500
5914.026482	1.146332	0.038237	537.629639
5914.027405	1.602539	0.038237	2016.773193
5914.028315	1.587045	0.038237	3460.983887
5914.029213	1.545703	0.038237	4849.025391
5914.030164	1.502783	0.038237	6278.172363
5914.031079	1.045715	0.038237	7235.001953
5914.031970	0.115210	0.038237	7337.653809
5914.032920	0.085862	0.038237	7419.222656
5914.033832	0.085854	0.038237	7497.521973
5914.034728	0.085920	0.038237	7574.506836
5914.035616	0.085851	0.038237	7650.742187
5914.036541	0.085964	0.038237	7730.259277
5914.037441	0.085796	0.038237	7807.475586
5914.038361	0.085847	0.038237	7886.455078
5914.039251	0.085811	0.038237	7962.826660
5914.040192	0.085844	0.038237	8043.605469
5915.078604	1.104276	0.043562	486.985748
5915.079577	1.601561	0.043562	2045.304810
5915.080494	1.585997	0.043562	3499.664551
5915.081393	1.544747	0.043562	4888.392578
5915.082289	1.503483	0.043562	6235.512695
5915.083255	1.014873	0.043562	7215.879883
5915.084159	0.109054	0.043562	7314.464844
5915.085052	0.085851	0.043562	7391.129883
5915.085976	0.085990	0.043562	7470.584473
5915.086882	0.085818	0.043562	7548.335449
5915.087799	0.085884	0.043562	7627.090820
5915.088696	0.085950	0.043562	7704.187500
5915.089642	0.085928	0.043562	7785.475098
5915.090555	0.085876	0.043562	7863.880371
5915.091451	0.085869	0.043562	7940.819336
5915.092343	0.085917	0.043562	8017.457031
5916.093914	1.118507	0.038442	508.920685
5916.094809	1.600419	0.038442	1941.295410
5916.095732	1.587880	0.038442	3406.908203
5916.096679	1.545004	0.038442	4870.026367
5916.097588	1.503636	0.038442	6236.832031
5916.098492	1.092601	0.038442	7224.543945
5916.099421	0.117440	0.038442	7333.645996
5916.100336	0.085800	0.038442	7412.152832
5916.101233	0.085840	0.038442	7489.151367
5916.102121	0.085935	0.038442	7565.461914
5916.103068	0.085975	0.038442	7646.880371
5916.103962	0.085865	0.038442	7723.644043
5916.104852	0.085895	0.038442	7800.090332
5916.105765	0.085935	0.038442	7878.548828
5916.106697	0.085898	0.038442	7958.605957
5916.107598	0.085854	0.038442	8035.960937
5917.145545	1.111245	0.044424	488.947876
5917.146510	1.602543	0.044424	2035.401611
5917.147413	1.586693	0.044424	3468.185547
5917.148311	1.545846	0.044424	4856.354980
5917.149247	1.503527	0.044424	6263.655762
5917.150167	1.059782	0.044424	7238.654785
5917.151068	0.114840	0.044424	7342.125488
5917.151956	0.085803	0.044424	7418.318848
5917.152894	0.085909	0.044424	7498.901855
5917.153785	0.085876	0.044424	7575.417969
5917.154711	0.085854	0.044424	7654.919434
5917.155606	0.085902	0.044424	7731.801758
5917.156533	0.085854	0.044424	7811.388672
5917.157437	0.085829	0.044424	7888.978027
5917.158328	0.085891	0.044424	7965.506836
5917.159251	0.085884	0.044424	8044.777344
5918.160847	1.106960	0.038515	489.276489
5918.161744	1.599635	0.038515	1924.149048
5918.162699	1.587235	0.038515	3439.958496
5918.163619	1.545776	0.038515	4862.072754
5918.164527	1.504091	0.038515	6227.787109
5918.165430	1.078901	0.038515	7202.035156
5918.166373	0.113251	0.038515	7308.830566
5918.167282	0.085792	0.038515	7386.815918
5918.168170	0.085840	0.038515	7463.041504
5918.169119	0.085840	0.038515	7544.503418
5918.170019	0.085876	0.038515	7621.791992
5918.170913	0.085862	0.038515	7698.552246
5918.171800	0.085818	0.038515	7774.672852
5918.172728	0.085913	0.038515	7854.400391
5918.173645	0.085792	0.038515	7933.071777
5918.174546	0.085822	0.038515	8010.396973
5919.213043	1.154886	0.041766	550.880859
5919.213957	1.602279	0.041766	2015.363892
5919.214854	1.587572	0.041766	3439.416016
5919.215817	1.544209	0.041766	4926.489258
5919.216730	1.502596	0.041766	6298.359863
5919.217637	1.048700	0.041766	7249.530762
5919.218523	0.116162	0.041766	7352.450195
5919.219464	0.085829	0.041766	7433.215332
5919.220374	0.085741	0.041766	7511.239746
5919.221265	0.085865	0.041766	7587.746094
5919.222191	0.085869	0.041766	7667.260742
5919.223103	0.085898	0.041766	7745.600098
5919.224009	0.085851	0.041766	7823.380859
5919.224901	0.085898	0.041766	7900.002441
5919.225850	0.085895	0.041766	7981.516602
5919.226761	0.085865	0.041766	8059.740234
5920.228834	1.114936	0.037395	498.376617
5920.229745	1.600558	0.037395	1956.484863
5920.230657	1.588081	0.037395	3404.814697
5920.231551	1.547736	0.037395	4788.490234
5920.232491	1.504911	0.037395	6203.106445
5920.233425	1.090159	0.037395	7221.314453
5920.234331	0.118480	0.037395	7328.657715
5920.235220	0.085767	0.037395	7404.904297
5920.236158	0.085884	0.037395	7485.463379
5920.237053	0.085833	0.037395	7562.283691
5920.237941	0.085869	0.037395	7638.535645
5920.238872	0.085891	0.037395	7718.500488
5920.239779	0.085876	0.037395	7796.390625
5920.240680	0.085928	0.037395	7873.811523
5920.241570	0.085924	0.037395	7950.284180
5920.242512	0.085968	0.037395	8031.266113
5921.279452	1.120023	0.041874	501.770355
5921.280355	1.600851	0.041874	1947.338623
5921.281249	1.589084	0.041874	3367.979980
5921.282193	1.546699	0.041874	4828.063965
5921.283118	1.504120	0.041874	6219.375000
5921.284037	1.091276	0.041874	7222.257324
5921.284926	0.122271	0.041874	7330.955566
5921.285879	0.085891	0.041874	7412.809570
5921.286773	0.085825	0.041874	7489.537109
5921.287666	0.085851	0.041874	7566.202148
5921.288585	0.085913	0.041874	7645.156250
5921.289487	0.085884	0.041874	7722.623535
5921.290391	0.085851	0.041874	7800.232910
5921.291281	0.085887	0.041874	7876.672852
5921.292207	0.085939	0.041874	7956.251953
5921.293118	0.085825	0.041874	8034.438477
5922.296787	1.107297	0.036613	491.640045
5922.297682	1.599287	0.036613	1923.002075
5922.298635	1.587385	0.036613	3435.780273
5922.299558	1.545542	0.036613	4862.315430
5922.300467	1.504036	0.036613	6229.483887
5922.301404	1.046873	0.036613	7210.403320
5922.302322	0.112057	0.036613	7313.271484
5922.303229	0.085825	0.036613	7391.114746
5922.304119	0.085862	0.036613	7467.531738
5922.305077	0.085917	0.036613	7549.839844
5922.305978	0.085920	0.036613	7627.253906
5922.306876	0.085862	0.036613	7704.357910
5922.307768	0.085887	0.036613	7780.969727
5922.308712	0.085895	0.036613	7862.054199
5922.309626	0.085869	0.036613	7940.538574
5922.310522	0.085887	0.036613	8017.493652
5923.346395	1.119979	0.040714	502.870697
5923.347308	1.601067	0.040714	1964.644897
5923.348206	1.587656	0.040714	3390.360107
5923.349179	1.544506	0.040714	4893.164062
5923.350089	1.503168	0.040714	6261.046875
5923.350994	1.069882	0.040714	7229.289551
5923.351924	0.116752	0.040714	7337.868652
5923.352827	0.085778	0.040714	7415.325684
5923.353720	0.085909	0.040714	7492.042969
5923.354608	0.085880	0.040714	7568.304687
5923.355540	0.085891	0.040714	7648.354980
5923.356452	0.085844	0.040714	7726.644043
5923.357352	0.085829	0.040714	7803.890137
5923.358242	0.085858	0.040714	7880.303711
5923.359193	0.085865	0.040714	7961.961914
5923.360095	0.085807	0.040714	8039.359863
5924.364807	1.161951	0.038390	579.813416
5924.365728	1.603868	0.038390	2056.976318
5924.366643	1.585682	0.038390	3507.875732
5924.367538	1.544465	0.038390	4890.172363
5924.368498	1.501315	0.038390	6331.434570
5924.369414	0.995863	0.038390	7243.645020
5924.370311	0.107750	0.038390	7340.296875
5924.371238	0.085789	0.038390	7419.822754
5924.372150	0.085964	0.038390	7498.222168
5924.373051	0.085847	0.038390	7575.570312
5924.373946	0.085851	0.038390	7652.406738
5924.374875	0.085986	0.038390	7732.288086
5924.375776	0.085898	0.038390	7809.682617
5924.376680	0.085902	0.038390	7887.337891
5924.377569	0.085891	0.038390	7963.695312
5924.378522	0.085946	0.038390	8045.602051
5925.411342	1.164119	0.041399	593.700500
5925.412257	1.603916	0.041399	2061.283691
5925.413167	1.585463	0.041399	3504.054687
5925.414065	1.544458	0.041399	4890.978027
5925.415022	1.501143	0.041399	6327.571289
5925.415942	0.992402	0.041399	7240.581543
5925.416830	0.107941	0.041399	7336.432617
5925.417751	0.085898	0.041399	7415.544922
5925.418677	0.085942	0.041399	7495.127441
5925.419578	0.085946	0.041399	7572.564941
5925.420474	0.085961	0.041399	7649.585937
5925.421416	0.086008	0.041399	7730.605957
5925.422316	0.085975	0.041399	7807.983887
5925.423224	0.085920	0.041399	7885.999512
5925.424114	0.085942	0.041399	7962.488281
5925.425045	0.086001	0.041399	8042.555176
5926.434813	1.164170	0.038837	561.129883
5926.435730	1.602942	0.038837	2031.027588
5926.436640	1.586506	0.038837	3474.748535
5926.437546	1.544963	0.038837	4874.485352
5926.438497	1.502289	0.038837	6303.162109
5926.439411	1.029620	0.038837	7244.235352
5926.440303	0.112899	0.038837	7344.941406
5926.441243	0.085862	0.038837	7425.651367
5926.442146	0.086060	0.038837	7503.363281
5926.443049	0.085953	0.038837	7580.979004
5926.443937	0.085957	0.038837	7657.309082
5926.444862	0.086019	0.038837	7736.876953
5926.445762	0.085920	0.038837	7814.205078
5926.446663	0.085906	0.038837	7891.605957
5926.447569	0.085950	0.038837	7969.476562
5926.448497	0.085968	0.038837	8049.254883
5927.476684	1.103225	0.041282	487.625488
5927.477654	1.599522	0.041282	2039.161377
5927.478569	1.586239	0.041282	3490.570068
5927.479467	1.544897	0.041282	4877.887695
5927.480363	1.504153	0.041282	6225.608398
5927.481322	1.037388	0.041282	7220.463379
5927.482223	0.111376	0.041282	7320.812988
5927.483127	0.085829	0.041282	7398.402344
5927.484014	0.085862	0.041282	7474.562012
5927.484961	0.086096	0.041282	7556.095215
5927.485867	0.085917	0.041282	7633.935547
5927.486759	0.085917	0.041282	7710.573242
5927.487697	0.085913	0.041282	7791.159668
5927.488592	0.085946	0.041282	7868.081543
5927.489497	0.085931	0.041282	7945.849609
5927.490386	0.085873	0.041282	8022.190430
5928.505311	1.124458	0.040058	507.130524
5928.506213	1.600605	0.040058	1950.876587
5928.507107	1.589029	0.040058	3371.468750
5928.508063	1.546117	0.040058	4849.556641
5928.508972	1.504318	0.040058	6216.981445
5928.509883	1.099420	0.040058	7218.553223
5928.510809	0.122410	0.040058	7331.904785
5928.511717	0.085884	0.040058	7409.887207
5928.512624	0.085887	0.040058	7487.787109
5928.513523	0.085818	0.040058	7564.937500
5928.514455	0.085953	0.040058	7645.045898
5928.515362	0.085913	0.040058	7722.969238
5928.516262	0.085931	0.040058	7800.307617
5928.517148	0.085778	0.040058	7876.306641
5928.518087	0.085979	0.040058	7957.041016
5928.518985	0.085869	0.040058	8034.151367
5929.540556	1.097395	0.041653	480.658997
5929.541485	1.599379	0.041653	1966.481934
5929.542412	1.586986	0.041653	3437.618164
5929.543329	1.545447	0.041653	4854.792969
5929.544227	1.504911	0.041653	6206.203125
5929.545176	1.062122	0.041653	7214.156738
5929.546091	0.114020	0.041653	7318.484863
5929.547014	0.085811	0.041653	7397.687988
5929.547901	0.085909	0.041653	7473.889648
5929.548849	0.085865	0.041653	7555.290039
5929.549744	0.085851	0.041653	7632.126465
5929.550631	0.085957	0.041653	7708.370117
5929.551557	0.085957	0.041653	7787.966309
5929.552473	0.085840	0.041653	7866.595703
5929.553377	0.085847	0.041653	7944.201660
5929.554265	0.085928	0.041653	8020.505371
5930.576361	1.112959	0.040436	519.751831
5930.577265	1.601217	0.040436	1967.252075
5930.578207	1.587257	0.040436	3462.448242
5930.579133	1.544425	0.040436	4892.585937
5930.580038	1.503186	0.040436	6252.969238
5930.580934	1.079202	0.040436	7219.934082
5930.581884	0.109999	0.040436	7324.433105
5930.582790	0.085756	0.040436	7402.127930
5930.583711	0.085917	0.040436	7481.257324
5930.584601	0.085854	0.040436	7557.667969
5930.585559	0.085818	0.040436	7639.881348
5930.586461	0.085895	0.040436	7717.358398
5930.587353	0.085854	0.040436	7793.940430
5930.588306	0.085876	0.040436	7875.780762
5930.589218	0.085902	0.040436	7954.123535
5930.590134	0.085887	0.040436	8032.796387
5931.604423	1.103979	0.041165	484.646973
5931.605393	1.603158	0.041165	2039.710205
5931.606305	1.586444	0.041165	3486.547119
5931.607201	1.545256	0.041165	4871.096680
5931.608148	1.503094	0.041165	6294.527344
5931.609076	1.012602	0.041165	7234.222656
5931.609992	0.107010	0.041165	7332.244141
5931.610884	0.085770	0.041165	7408.750977
5931.611836	0.085887	0.041165	7490.515625
5931.612746	0.085844	0.041165	7568.633301
5931.613665	0.085836	0.041165	7647.516602
5931.614552	0.085957	0.041165	7723.760254
5931.615493	0.085898	0.041165	7804.590820
5931.616387	0.085891	0.041165	7881.377441
5931.617277	0.085909	0.041165	7957.836914
5931.618215	0.085895	0.041165	8038.406250
5932.647377	1.100057	0.042370	485.125305
5932.648349	1.603165	0.042370	2043.401855
5932.649253	1.586129	0.042370	3477.262695
5932.650184	1.544136	0.042370	4914.853027
5932.651079	1.502538	0.042370	6259.624512
5932.652034	1.004161	0.042370	7218.598633
5932.652939	0.107706	0.042370	7316.072754
5932.653829	0.085796	0.042370	7392.431152
5932.654755	0.085854	0.042370	7471.932617
5932.655661	0.085935	0.042370	7549.789551
5932.656587	0.085778	0.042370	7629.219727
5932.657484	0.085818	0.042370	7706.198242
5932.658440	0.085748	0.042370	7788.173828
5932.659336	0.085778	0.042370	7865.030762
5932.660260	0.085844	0.042370	7944.350098
5932.661151	0.085800	0.042370	8020.797363
5933.668830	1.123411	0.040271	511.151855
5933.669734	1.600781	0.040271	1958.258057
5933.670656	1.587997	0.040271	3422.391113
5933.671592	1.545513	0.040271	4868.991211
5933.672492	1.504171	0.040271	6222.745117
5933.673395	1.102042	0.040271	7217.889160
5933.674331	0.118359	0.040271	7328.673340
5933.675244	0.085814	0.040271	7407.021484
5933.676146	0.085873	0.040271	7484.478516
5933.677037	0.085807	0.040271	7560.932617
5933.677978	0.085865	0.040271	7641.731934
5933.678878	0.085840	0.040271	7718.987793
5933.679766	0.085902	0.040271	7795.269043
5933.680673	0.085869	0.040271	7873.152344
5933.681587	0.085909	0.040271	7951.673340
5933.682491	0.085858	0.040271	8029.289062
5934.717911	1.118339	0.042640	493.187378
5934.718824	1.600540	0.042640	1954.479980
5934.719720	1.589048	0.042640	3378.266846
5934.720663	1.547201	0.042640	4837.277344
5934.721581	1.504347	0.042640	6218.267578
5934.722507	1.085339	0.042640	7223.291992
5934.723399	0.121531	0.042640	7331.697266
5934.724347	0.085935	0.042640	7413.163574
5934.725249	0.085924	0.042640	7490.666992
5934.726142	0.085854	0.042640	7567.334961
5934.727028	0.085844	0.042640	7643.392090
5934.727963	0.085917	0.042640	7723.724121
5934.728864	0.085844	0.042640	7801.069336
5934.729753	0.085902	0.042640	7877.436523
5934.730684	0.085898	0.042640	7957.408203
5934.731600	0.085869	0.042640	8036.064453
5935.733193	1.111143	0.040243	488.902710
5935.734175	1.603978	0.040243	2064.009277
5935.735092	1.585631	0.040243	3518.032959
5935.735996	1.544026	0.040243	4913.832520
5935.736938	1.501864	0.040243	6328.588379
5935.737849	1.008219	0.040243	7247.075684
5935.738740	0.109819	0.040243	7344.924805
5935.739631	0.085902	0.040243	7421.463379
5935.740588	0.085994	0.040243	7503.759277
5935.741481	0.085931	0.040243	7580.496094
5935.742388	0.085942	0.040243	7658.445801
5935.743276	0.085865	0.040243	7734.694336
5935.744211	0.085873	0.040243	7814.985352
5935.745126	0.085942	0.040243	7893.622559
5935.746026	0.085946	0.040243	7970.974121
5935.746912	0.085862	0.040243	8047.047852
5936.785861	1.096879	0.044263	476.045319
5936.786822	1.600111	0.044263	2013.752075
5936.787744	1.586429	0.044263	3476.439941
5936.788655	1.544930	0.044263	4883.871582
5936.789548	1.503948	0.044263	6226.896973
5936.790506	1.033528	0.044263	7217.016602
5936.791415	0.111669	0.044263	7318.523437
5936.792306	0.085792	0.044263	7394.964355
5936.793191	0.085865	0.044263	7470.955078
5936.794137	0.085979	0.044263	7552.291016
5936.795047	0.085906	0.044263	7630.465332
5936.795947	0.085858	0.044263	7707.737793
5936.796834	0.085902	0.044263	7783.933105
5936.797790	0.085931	0.044263	7866.083496
5936.798689	0.085884	0.044263	7943.292969
5936.799577	0.085887	0.044263	8019.561035
5937.800186	1.157974	0.039929	561.617249
5937.801107	1.603242	0.039929	2038.203369
5937.802011	1.586704	0.039929	3472.583984
5937.802904	1.545612	0.039929	4852.814941
5937.803852	1.503336	0.039929	6277.977539
5937.804775	1.048059	0.039929	7245.335937
5937.805662	0.115345	0.039929	7347.647461
5937.806595	0.085814	0.039929	7427.711914
5937.807503	0.085924	0.039929	7505.730957
5937.808398	0.085873	0.039929	7582.586914
5937.809289	0.085931	0.039929	7659.151855
5937.810227	0.085983	0.039929	7739.803711
5937.811130	0.085946	0.039929	7817.413086
5937.812033	0.085961	0.039929	7895.035645
5937.812919	0.085884	0.039929	7971.128906
5937.813858	0.085997	0.039929	8051.880371
5938.854353	1.105873	0.044505	487.689941
5938.855252	1.599906	0.044505	1926.005493
5938.856147	1.589304	0.044505	3348.432617
5938.857096	1.546681	0.044505	4816.232910
5938.858017	1.505021	0.044505	6202.356934
5938.858934	1.107107	0.044505	7217.574219
5938.859870	0.123259	0.044505	7332.944824
5938.860783	0.085822	0.044505	7411.299805
5938.861681	0.085840	0.044505	7488.383789
5938.862569	0.085833	0.044505	7564.603027
5938.863519	0.085906	0.044505	7646.213379
5938.864421	0.085924	0.044505	7723.716797
5938.865319	0.085818	0.044505	7800.781250
5938.866209	0.085803	0.044505	7877.145996
5938.867150	0.085994	0.044505	7958.065918
5938.868059	0.085902	0.044505	8036.150879
5939.867604	1.112497	0.038801	490.611389
5939.868509	1.600100	0.038801	1938.702148
5939.869404	1.588411	0.038801	3360.329590
5939.870374	1.545454	0.038801	4859.419922
5939.871292	1.504050	0.038801	6240.138184
5939.872205	1.075803	0.038801	7222.346680
5939.873135	0.117521	0.038801	7331.641113
5939.874035	0.085844	0.038801	7408.900391
5939.874933	0.085858	0.038801	7486.000977
5939.875818	0.085887	0.038801	7562.011230
5939.876752	0.085968	0.038801	7642.305176
5939.877643	0.085946	0.038801	7718.883301
5939.878540	0.085884	0.038801	7795.920898
5939.879426	0.085873	0.038801	7872.004395
5939.880384	0.085928	0.038801	7954.323242
5939.881290	0.085906	0.038801	8032.153809
5940.920781	1.108557	0.042986	489.982239
5940.921683	1.599873	0.042986	1933.067627
5940.922576	1.589388	0.042986	3352.391602
5940.923536	1.546586	0.042986	4837.113770
5940.924452	1.504925	0.042986	6215.625488
5940.925361	1.112959	0.042986	7227.305176
5940.926295	0.124314	0.042986	7343.414551
5940.927202	0.085895	0.042986	7421.321289
5940.928111	0.085869	0.042986	7499.376465
5940.929002	0.085887	0.042986	7575.902344
5940.929941	0.085891	0.042986	7656.554199
5940.930848	0.085887	0.042986	7734.454102
5940.931752	0.085884	0.042986	7812.093262
5940.932640	0.085884	0.042986	7888.357910
5940.933582	0.085961	0.042986	7969.333008
5940.934487	0.085829	0.042986	8047.008301
5941.937116	1.123235	0.039284	503.209229
5941.938020	1.600386	0.039284	1949.957886
5941.938914	1.589246	0.039284	3370.743408
5941.939878	1.545894	0.039284	4860.984863
5941.940779	1.504416	0.039284	6216.463867
5941.941694	1.097640	0.039284	7220.804687
5941.942585	0.123113	0.039284	7330.498047
5941.943534	0.085964	0.039284	7412.078125
5941.944444	0.085869	0.039284	7490.219238
5941.945343	0.085785	0.039284	7567.339844
5941.946274	0.085891	0.039284	7647.304687
5941.947176	0.085931	0.039284	7724.814941
5941.948068	0.085902	0.039284	7801.439453
5941.948958	0.085880	0.039284	7877.872559
5941.949903	0.085825	0.039284	7958.977539
5941.950800	0.085811	0.039284	8035.949707
5942.986712	1.119628	0.042076	501.593170
5942.987649	1.602030	0.042076	2002.695312
5942.988557	1.586935	0.042076	3443.632080
5942.989512	1.543513	0.042076	4917.687012
5942.990456	1.501439	0.042076	6335.045898
5942.991354	1.006315	0.042076	7238.716309
5942.992277	0.106849	0.042076	7337.338379
5942.993218	0.085719	0.042076	7418.000000
5942.994129	0.085869	0.042076	7496.226562
5942.995019	0.085920	0.042076	7572.695801
5942.995964	0.085829	0.042076	7653.804199
5942.996904	0.085869	0.042076	7734.520996
5942.997815	0.085873	0.042076	7812.750977
5942.998708	0.085902	0.042076	7889.461426
5942.999651	0.086001	0.042076	7970.560547
5943.000557	0.085942	0.042076	8048.424316
5944.006610	1.108707	0.040239	487.831207
5944.007532	1.600631	0.040239	1963.612915
5944.008438	1.588630	0.040239	3402.912109
5944.009373	1.546765	0.040239	4849.137695
5944.010282	1.504720	0.040239	6216.928711
5944.011196	1.108063	0.040239	7229.698242
5944.012083	0.126295	0.040239	7341.722168
5944.013023	0.085873	0.040239	7422.442383
5944.013916	0.085887	0.040239	7499.139648
5944.014820	0.085950	0.040239	7576.838379
5944.015707	0.085953	0.040239	7653.079102
5944.016661	0.085917	0.040239	7735.043457
5944.017572	0.085884	0.040239	7813.283691
5944.018470	0.085898	0.040239	7890.420410
5944.019401	0.085968	0.040239	7970.456543
5944.020300	0.085953	0.040239	8047.728516
5945.051085	1.098120	0.042273	483.172852
5945.051977	1.599130	0.042273	1909.596558
5945.052946	1.587125	0.042273	3447.520996
5945.053853	1.545593	0.042273	4849.374023
5945.054760	1.504633	0.042273	6214.075684
5945.055661	1.080179	0.042273	7187.317383
5945.056602	0.116356	0.042273	7296.808594
5945.057506	0.085745	0.042273	7374.321777
5945.058405	0.085836	0.042273	7451.488281
5945.059333	0.085844	0.042273	7531.150879
5945.060234	0.085906	0.042273	7608.551758
5945.061140	0.085858	0.042273	7686.339355
5945.062033	0.085873	0.042273	7763.023926
5945.062967	0.085931	0.042273	7843.283691
5945.063869	0.085851	0.042273	7920.721191
5945.064767	0.085891	0.042273	7997.851562
5946.076172	1.173417	0.041310	583.188110
5946.077087	1.603022	0.041310	2049.953613
5946.077999	1.586016	0.041310	3496.399902
5946.078897	1.543700	0.041310	4882.642578
5946.079860	1.501197	0.041310	6328.295898
5946.080783	0.990121	0.041310	7242.177246
5946.081679	0.106952	0.041310	7338.006348
5946.082605	0.085833	0.041310	7417.487305
5946.083507	0.085939	0.041310	7495.003906
5946.084407	0.085957	0.041310	7572.365234
5946.085294	0.085931	0.041310	7648.586426
5946.086234	0.085968	0.041310	7729.396484
5946.087131	0.085939	0.041310	7806.483398
5946.088025	0.085847	0.041310	7883.230957
5946.088932	0.085939	0.041310	7961.177246
5946.089862	0.085953	0.041310	8041.113770
5947.116510	1.126359	0.041584	507.987732
5947.117424	1.601045	0.041584	1971.342773
5947.118331	1.587986	0.041584	3411.645996
5947.119265	1.545850	0.041584	4855.469727
5947.120186	1.503739	0.041584	6240.413086
5947.121100	1.078056	0.041584	7225.755859
5947.121987	0.119967	0.041584	7332.166504
5947.122941	0.085847	0.041584	7414.064941
5947.123849	0.085865	0.041584	7492.030762
5947.124743	0.085854	0.041584	7568.784668
5947.125683	0.085898	0.041584	7649.529297
5947.126580	0.086001	0.041584	7726.672363
5947.127468	0.085833	0.041584	7802.891602
5947.128358	0.085770	0.041584	7879.227051
5947.129297	0.085898	0.041584	7959.885742
5947.130203	0.085924	0.041584	8037.732910
5948.146150	1.126999	0.040924	513.911743
5948.147067	1.601371	0.040924	1982.368774
5948.147967	1.588052	0.040924	3411.615234
5948.148905	1.545915	0.040924	4861.684082
5948.149817	1.503944	0.040924	6233.281250
5948.150729	1.083472	0.040924	7221.407227
5948.151622	0.120447	0.040924	7328.966309
5948.152551	0.085840	0.040924	7408.711426
5948.153458	0.085902	0.040924	7486.624512
5948.154364	0.085898	0.040924	7564.448730
5948.155264	0.085876	0.040924	7641.737305
5948.156203	0.086001	0.040924	7722.492187
5948.157109	0.085803	0.040924	7800.229980
5948.157999	0.085902	0.040924	7876.682617
5948.158940	0.085942	0.040924	7957.554199
5948.159843	0.085942	0.040924	8035.160156
5949.181902	1.116896	0.041862	494.784851
5949.182885	1.603722	0.041862	2071.243652
5949.183805	1.585118	0.041862	3529.552734
5949.184704	1.544154	0.041862	4917.747070
5949.185649	1.501787	0.041862	6336.936035
5949.186577	0.981998	0.041862	7248.230469
5949.187468	0.106150	0.041862	7342.810059
5949.188355	0.085851	0.041862	7418.959961
5949.189285	0.085880	0.041862	7498.828613
5949.190196	0.085920	0.041862	7577.102051
5949.191094	0.085873	0.041862	7654.215820
5949.192008	0.085950	0.041862	7732.773926
5949.192924	0.085950	0.041862	7811.503906
5949.193831	0.085906	0.041862	7889.420410
5949.194723	0.085979	0.041862	7966.113770
5949.195661	0.085920	0.041862	8046.707031
5950.214095	1.096124	0.042225	482.294647
5950.214988	1.599122	0.042225	1910.310913
5950.215937	1.587561	0.042225	3416.906250
5950.216864	1.545714	0.042225	4849.783203
5950.217771	1.504453	0.042225	6214.322266
5950.218725	1.057310	0.042225	7222.995605
5950.219629	0.113503	0.042225	7325.602539
5950.220527	0.085767	0.042225	7402.621094
5950.221414	0.085939	0.042225	7478.848633
5950.222366	0.086049	0.042225	7560.767090
5950.223264	0.085902	0.042225	7637.907227
5950.224166	0.085946	0.042225	7715.430664
5950.225054	0.085924	0.042225	7791.731445
5950.225990	0.085986	0.042225	7872.214844
5950.226900	0.085895	0.042225	7950.378906
5950.227800	0.085887	0.042225	8027.677734
5951.248336	1.123213	0.041516	499.829742
5951.249322	1.604180	0.041516	2081.551025
5951.250236	1.585031	0.041516	3530.269043
5951.251138	1.543821	0.041516	4922.795410
5951.252082	1.501699	0.041516	6340.399414
5951.252999	0.991567	0.041516	7249.666504
5951.253897	0.107556	0.041516	7346.251953
5951.254786	0.085730	0.041516	7422.465820
5951.255738	0.085876	0.041516	7504.220215
5951.256639	0.085884	0.041516	7581.601562
5951.257523	0.085865	0.041516	7657.506836
5951.258431	0.085840	0.041516	7735.449219
5951.259361	0.085887	0.041516	7815.324707
5951.260270	0.085876	0.041516	7893.386230
5951.261165	0.085844	0.041516	7970.216309
5951.262090	0.085917	0.041516	8049.689453
5952.282060	1.108103	0.042181	491.997742
5952.283005	1.602393	0.042181	2006.258789
5952.283925	1.586481	0.042181	3465.821045
5952.284826	1.545634	0.042181	4858.437012
5952.285764	1.503289	0.042181	6268.521484
5952.286698	1.032546	0.042181	7232.919922
5952.287602	0.110889	0.042181	7333.163086
5952.288490	0.085865	0.042181	7409.411621
5952.289432	0.085990	0.042181	7490.414062
5952.290330	0.085767	0.042181	7567.432617
5952.291222	0.085847	0.042181	7644.008301
5952.292131	0.085920	0.042181	7722.109863
5952.293051	0.085920	0.042181	7801.156738
5952.293958	0.085873	0.042181	7879.043457
5952.294849	0.085844	0.042181	7955.529785
5952.295778	0.085942	0.042181	8035.370117
5953.315831	1.155443	0.042084	551.146362
5953.316749	1.602209	0.042084	2021.974609
5953.317650	1.587045	0.042084	3451.901855
5953.318547	1.545381	0.042084	4838.108398
5953.319504	1.502651	0.042084	6276.145996
5953.320423	1.041870	0.042084	7233.624512
5953.321315	0.113628	0.042084	7334.980469
5953.322244	0.085931	0.042084	7414.810547
5953.323158	0.085913	0.042084	7493.334961
5953.324060	0.085854	0.042084	7570.775879
5953.324948	0.085814	0.042084	7646.979004
5953.325894	0.085920	0.042084	7728.259766
5953.326803	0.085906	0.042084	7806.348145
5953.327697	0.085913	0.042084	7883.154297
5953.328591	0.085931	0.042084	7959.977051
5953.329540	0.085946	0.042084	8041.540039
5954.350045	1.125718	0.042370	508.824432
5954.350948	1.600972	0.042370	1954.501953
5954.351874	1.587718	0.042370	3424.729248
5954.352817	1.545033	0.042370	4881.695312
5954.353730	1.503387	0.042370	6254.288086
5954.354627	1.088712	0.042370	7230.862793
5954.355567	0.117601	0.042370	7341.408203
5954.356472	0.085789	0.042370	7419.046875
5954.357371	0.085876	0.042370	7496.250000
5954.358261	0.085902	0.042370	7572.702637
5954.359196	0.085950	0.042370	7653.065430
5954.360099	0.085851	0.042370	7730.588867
5954.360989	0.085953	0.042370	7807.087402
5954.361896	0.085858	0.042370	7884.960937
5954.362824	0.085895	0.042370	7964.671387
5954.363737	0.085840	0.042370	8043.042969
5955.383262	1.121030	0.042817	502.221588
5955.384169	1.600605	0.042817	1953.970703
5955.385103	1.587319	0.042817	3436.526855
5955.386002	1.546011	0.042817	4826.390625
5955.386951	1.503391	0.042817	6253.108887
5955.387880	1.044650	0.042817	7223.588379
5955.388769	0.114921	0.042817	7325.752930
5955.389711	0.085807	0.042817	7406.583008
5955.390620	0.085800	0.042817	7484.574707
5955.391533	0.085931	0.042817	7563.030273
5955.392427	0.085873	0.042817	7639.800781
5955.393385	0.085858	0.042817	7722.052734
5955.394303	0.085928	0.042817	7800.934570
5955.395188	0.085917	0.042817	7876.970703
5955.396107	0.085946	0.042817	7955.955078
5955.397029	0.085895	0.042817	8035.149902
5956.416983	1.113380	0.042708	496.567505
5956.417891	1.600455	0.042708	1949.780884
5956.418791	1.588978	0.042708	3379.861328
5956.419761	1.545205	0.042708	4878.710449
5956.420673	1.503355	0.042708	6249.769531
5956.421610	1.042720	0.042708	7226.797852
5956.422493	0.115173	0.042708	7328.496094
5956.423445	0.085748	0.042708	7410.128418
5956.424359	0.085847	0.042708	7488.592773
5956.425246	0.085851	0.042708	7564.742676
5956.426180	0.085767	0.042708	7644.848633
5956.427094	0.085767	0.042708	7723.239258
5956.428009	0.085986	0.042708	7801.916504
5956.428905	0.085946	0.042708	7878.924316
5956.429847	0.085825	0.042708	7959.771484
5956.430767	0.085789	0.042708	8038.696777
5957.451730	1.102588	0.042491	479.625702
5957.452633	1.599653	0.042491	1924.112671
5957.453599	1.586799	0.042491	3456.960937
5957.454522	1.544623	0.042491	4882.647461
5957.455424	1.503633	0.042491	6238.924316
5957.456354	1.052296	0.042491	7217.559570
5957.457306	0.108779	0.042491	7321.117676
5957.458225	0.085811	0.042491	7399.977539
5957.459115	0.085891	0.042491	7476.420410
5957.460062	0.085851	0.042491	7557.721191
5957.461000	0.085869	0.042491	7638.266602
5957.461904	0.085800	0.042491	7715.829590
5957.462823	0.085891	0.042491	7794.763672
5957.463752	0.085876	0.042491	7874.542969
5957.464683	0.085836	0.042491	7954.456543
5957.465582	0.085928	0.042491	8031.705566
5958.483448	1.123242	0.041500	534.663269
5958.484376	1.602136	0.041500	2021.445801
5958.485270	1.586990	0.041500	3440.214600
5958.486203	1.544586	0.041500	4881.313477
5958.487152	1.501271	0.041500	6306.019531
5958.488085	0.980244	0.041500	7220.587402
5958.488977	0.106234	0.041500	7315.348145
5958.489924	0.085763	0.041500	7396.565430
5958.490861	0.085763	0.041500	7476.925293
5958.491769	0.085847	0.041500	7554.874512
5958.492657	0.085895	0.041500	7631.148926
5958.493596	0.085734	0.041500	7711.652832
5958.494523	0.085803	0.041500	7791.192383
5958.495439	0.085887	0.041500	7869.865234
5958.496335	0.085862	0.041500	7946.797363
5958.497285	0.085778	0.041500	8028.286133
5959.521266	1.123638	0.042366	524.738770
5959.522174	1.601294	0.042366	1978.713623
5959.523066	1.587869	0.042366	3395.092285
5959.524035	1.544648	0.042366	4891.856445
5959.524961	1.502120	0.042366	6282.819824
5959.525871	1.034520	0.042366	7224.233398
5959.526788	0.112427	0.042366	7327.328613
5959.527723	0.085719	0.042366	7407.476074
5959.528646	0.085895	0.042366	7486.756836
5959.529547	0.085854	0.042366	7564.111816
5959.530465	0.085854	0.042366	7642.926270
5959.531403	0.085822	0.042366	7723.426758
5959.532323	0.085789	0.042366	7802.352051
5959.533208	0.085895	0.042366	7878.369141
5959.534132	0.085847	0.042366	7957.691895
5959.535055	0.085898	0.042366	8036.976074
5960.549363	1.157091	0.040585	553.089539
5960.550269	1.602111	0.040585	2004.601562
5960.551207	1.586411	0.040585	3492.655273
5960.552119	1.544623	0.040585	4901.351074
5960.553027	1.503234	0.040585	6266.287109
5960.553933	1.064850	0.040585	7231.041016
5960.554872	0.110574	0.040585	7334.869629
5960.555779	0.085862	0.040585	7412.746094
5960.556671	0.085836	0.040585	7489.312012
5960.557600	0.085884	0.040585	7569.098145
5960.558506	0.085997	0.040585	7647.011719
5960.559417	0.085898	0.040585	7725.265137
5960.560315	0.085862	0.040585	7802.369141
5960.561245	0.085931	0.040585	7882.285156
5960.562145	0.085920	0.040585	7959.613281
5960.563050	0.085884	0.040585	8037.337891
5961.591298	1.162588	0.042918	561.529968
5961.592205	1.602367	0.042918	2014.876709
5961.593111	1.586865	0.042918	3452.576660
5961.594002	1.546534	0.042918	4830.539062
5961.594943	1.503732	0.042918	6245.550781
5961.595878	1.052604	0.042918	7229.735352
5961.596779	0.114492	0.042918	7332.892578
5961.597669	0.085822	0.042918	7409.273926
5961.598613	0.085975	0.042918	7490.434570
5961.599517	0.085792	0.042918	7567.990723
5961.600409	0.085836	0.042918	7644.556641
5961.601344	0.085939	0.042918	7724.909180
5961.602248	0.085891	0.042918	7802.554687
5961.603145	0.085858	0.042918	7879.569336
5961.604031	0.085920	0.042918	7955.694824
5961.604968	0.085946	0.042918	8036.226074
5962.614219	1.112494	0.041874	489.497314
5962.615193	1.603484	0.041874	2051.290527
5962.616103	1.585807	0.041874	3494.374756
5962.617002	1.544949	0.041874	4883.283691
5962.617941	1.502992	0.041874	6294.593262
5962.618866	1.021351	0.041874	7239.343262
5962.619756	0.111354	0.041874	7338.448242
5962.620645	0.085858	0.041874	7414.776367
5962.621595	0.086027	0.041874	7496.501465
5962.622495	0.085906	0.041874	7573.816406
5962.623399	0.085902	0.041874	7651.471680
5962.624288	0.085935	0.041874	7727.868164
5962.625240	0.085957	0.041874	7809.699219
5962.626145	0.085880	0.041874	7887.420898
5962.627031	0.085986	0.041874	7963.604980
5962.627965	0.085920	0.041874	8043.854492
5963.660741	1.096359	0.043586	476.916016
5963.661711	1.600737	0.043586	2029.631104
5963.662632	1.585957	0.043586	3490.297607
5963.663568	1.543499	0.043586	4935.012207
5963.664465	1.502366	0.043586	6282.634277
5963.665445	0.954119	0.043586	7217.670410
5963.666339	0.103931	0.043586	7310.584473
5963.667228	0.085917	0.043586	7386.964355
5963.668157	0.085928	0.043586	7466.791016
5963.669079	0.085928	0.043586	7546.016602
5963.669988	0.085862	0.043586	7624.064941
5963.670877	0.085953	0.043586	7700.477539
5963.671817	0.085862	0.043586	7781.187500
5963.672725	0.085895	0.043586	7859.180176
5963.673645	0.085913	0.043586	7938.220215
5963.674530	0.085983	0.043586	8014.314941
5964.679638	1.102218	0.042902	493.793671
5964.680531	1.599979	0.042902	1922.575195
5964.681475	1.588081	0.042902	3421.723633
5964.682382	1.546110	0.042902	4824.044922
5964.683316	1.504039	0.042902	6228.817383
5964.684218	1.098772	0.042902	7219.909668
5964.685163	0.113712	0.042902	7327.367676
5964.686073	0.085781	0.042902	7405.428711
5964.686992	0.085950	0.042902	7484.416504
5964.687881	0.085931	0.042902	7560.809570
5964.688827	0.085895	0.042902	7642.065918
5964.689727	0.085781	0.042902	7719.269043
5964.690613	0.085814	0.042902	7795.300293
5964.691546	0.085822	0.042902	7875.371582
5964.692456	0.085770	0.042902	7953.422363
5964.693371	0.085862	0.042902	8031.985840
5965.730769	1.102518	0.042797	489.518127
5965.731739	1.602894	0.042797	2044.325684
5965.732658	1.585254	0.042797	3501.174072
5965.733596	1.542964	0.042797	4948.474121
5965.734493	1.501545	0.042797	6295.360352
5965.735462	0.954225	0.042797	7220.004395
5965.736359	0.103671	0.042797	7312.997070
5965.737269	0.085844	0.042797	7391.114746
5965.738169	0.085778	0.042797	7468.314453
5965.739109	0.085880	0.042797	7549.041992
5965.740037	0.085902	0.042797	7628.759277
5965.740931	0.085909	0.042797	7705.562500
5965.741868	0.085891	0.042797	7786.042480
5965.742788	0.085887	0.042797	7865.059082
5965.743708	0.085873	0.042797	7944.062012
5965.744596	0.085887	0.042797	8020.330078
5966.745057	1.123312	0.043603	503.243652
5966.745958	1.600199	0.043603	1945.022949
5966.746896	1.587484	0.043603	3434.083008
5966.747788	1.546838	0.043603	4813.862793
5966.748763	1.502673	0.043603	6278.969238
5966.749670	1.035176	0.043603	7217.873535
5966.750586	0.110691	0.043603	7319.266602
5966.751484	0.085741	0.043603	7396.262207
5966.752437	0.085829	0.043603	7478.057129
5966.753355	0.085862	0.043603	7556.878418
5966.754250	0.085935	0.043603	7633.790527
5966.755188	0.085873	0.043603	7714.339355
5966.756103	0.085898	0.043603	7792.936523
5966.757019	0.085869	0.043603	7871.592773
5966.757911	0.085818	0.043603	7948.142090
5966.758859	0.085909	0.043603	8029.583984
5967.798760	1.139809	0.045061	525.452148
5967.799678	1.601682	0.045061	1995.796387
5967.800575	1.587843	0.045061	3420.091553
5967.801495	1.545919	0.045061	4842.336914
5967.802440	1.503142	0.045061	6262.806152
5967.803373	1.033993	0.045061	7227.521484
5967.804259	0.113372	0.045061	7327.968750
5967.805206	0.085862	0.045061	7409.279785
5967.806118	0.085946	0.045061	7487.662598
5967.807041	0.085902	0.045061	7566.950195
5967.807934	0.085876	0.045061	7643.637695
5967.808884	0.085895	0.045061	7725.237793
5967.809805	0.085880	0.045061	7804.333496
5967.810699	0.085939	0.045061	7881.162598
5967.811620	0.085884	0.045061	7960.261719
5967.812531	0.085909	0.045061	8038.525391
5968.812016	1.132031	0.043107	524.130432
5968.812919	1.600840	0.043107	1969.688721
5968.813815	1.588583	0.043107	3393.058838
5968.814758	1.546036	0.043107	4850.971191
5968.815699	1.502563	0.043107	6264.883301
5968.816627	1.027936	0.043107	7218.807617
5968.817525	0.111467	0.043107	7318.905273
5968.818469	0.085712	0.043107	7399.816895
5968.819383	0.085785	0.043107	7478.224121
5968.820304	0.085880	0.043107	7557.319824
5968.821190	0.085847	0.043107	7633.380371
5968.822137	0.085917	0.043107	7714.743652
5968.823055	0.085785	0.043107	7793.494141
5968.823945	0.085906	0.043107	7869.950195
5968.824898	0.085950	0.043107	7951.860352
5968.825804	0.085884	0.043107	8029.670898
5969.866226	1.124604	0.045842	538.685547
5969.867132	1.602352	0.045842	1990.416748
5969.868068	1.586481	0.045842	3475.362793
5969.868996	1.543964	0.045842	4908.161133
5969.869917	1.501743	0.045842	6291.266602
5969.870825	1.028423	0.045842	7225.074707
5969.871771	0.106428	0.045842	7325.755859
5969.872703	0.085818	0.045842	7405.738281
5969.873597	0.085884	0.045842	7482.518555
5969.874542	0.085913	0.045842	7563.706543
5969.875439	0.085818	0.045842	7640.685059
5969.876360	0.085928	0.045842	7719.824707
5969.877257	0.085862	0.045842	7796.842773
5969.878191	0.085851	0.045842	7877.027344
5969.879107	0.085847	0.045842	7955.663574
5969.880031	0.085902	0.045842	8035.037109
5970.879468	1.116984	0.042950	529.450256
5970.880373	1.602191	0.042950	1979.433350
5970.881321	1.586492	0.042950	3483.427490
5970.882249	1.543678	0.042950	4915.960449
5970.883177	1.501461	0.042950	6309.316406
5970.884082	1.019246	0.042950	7231.733887
5970.885044	0.102583	0.042950	7330.418945
5970.885946	0.085763	0.042950	7407.777344
5970.886862	0.085873	0.042950	7486.437012
5970.887756	0.085847	0.042950	7563.184570
5970.888705	0.085851	0.042950	7644.657227
5970.889624	0.085858	0.042950	7723.561035
5970.890517	0.085895	0.042950	7800.265137
5970.891452	0.085869	0.042950	7880.552734
5970.892370	0.085876	0.042950	7959.387207
5970.893298	0.085880	0.042950	8039.083984
5971.932645	1.108575	0.046306	503.293274
5971.933545	1.600386	0.046306	1943.640381
5971.934485	1.587627	0.046306	3436.009766
5971.935398	1.544945	0.046306	4846.544434
5971.936329	1.503131	0.046306	6245.959473
5971.937234	1.074756	0.046306	7218.613281
5971.938171	0.113408	0.046306	7324.876953
5971.939086	0.085840	0.046306	7403.420410
5971.940000	0.085935	0.046306	7481.964844
5971.940888	0.085811	0.046306	7558.164551
5971.941847	0.085876	0.046306	7640.520020
5971.942772	0.085862	0.046306	7719.942383
5971.943659	0.085909	0.046306	7796.144043
5971.944602	0.085972	0.046306	7877.215332
5971.945499	0.085898	0.046306	7954.266113
5971.946416	0.085968	0.046306	8033.098633
5972.947982	1.155040	0.043139	580.985229
5972.948883	1.602817	0.043139	2025.123657
5972.949806	1.585745	0.043139	3488.766113
5972.950707	1.544143	0.043139	4880.039062
5972.951666	1.500948	0.043139	6319.448730
5972.952607	0.964552	0.043139	7227.092285
5972.953503	0.103953	0.043139	7320.233887
5972.954433	0.085865	0.043139	7400.088867
5972.955358	0.085902	0.043139	7479.548340
5972.956270	0.085920	0.043139	7557.907715
5972.957161	0.085891	0.043139	7634.436523
5972.958111	0.085906	0.043139	7716.046875
5972.959023	0.085906	0.043139	7794.393066
5972.959935	0.085880	0.043139	7872.715820
5972.960833	0.085917	0.043139	7949.869141
5972.961793	0.085818	0.043139	8032.254395
5973.997013	1.113406	0.045339	492.125366
5973.997938	1.599902	0.045339	1972.035034
5973.998866	1.587125	0.045339	3444.887207
5973.999802	1.544509	0.045339	4890.547852
5974.000696	1.503867	0.045339	6235.004883
5974.001644	1.038398	0.045339	7219.406738
5974.002559	0.109424	0.045339	7319.529297
5974.003476	0.085844	0.045339	7398.247559
5974.004366	0.085920	0.045339	7474.716797
5974.005313	0.085917	0.045339	7556.080078
5974.006248	0.085836	0.045339	7636.336914
5974.007148	0.085880	0.045339	7713.628906
5974.008067	0.085814	0.045339	7792.492187
5974.009010	0.085865	0.045339	7873.463379
5974.009930	0.085814	0.045339	7952.412598
5974.010818	0.085939	0.045339	8028.726074
5975.018478	1.123400	0.041427	523.504211
5975.019392	1.601536	0.041427	1987.307861
5975.020288	1.587821	0.041427	3409.995605
5975.021220	1.545967	0.041427	4850.836914
5975.022159	1.503186	0.041427	6262.328613
5975.023087	1.057698	0.041427	7243.872070
5975.023974	0.117385	0.041427	7347.992676
5975.024924	0.085829	0.041427	7429.530273
5975.025867	0.085847	0.041427	7510.484375
5975.026768	0.085887	0.041427	7587.869141
5975.027684	0.085833	0.041427	7666.491699
5975.028612	0.085917	0.041427	7746.222656
5975.029547	0.085895	0.041427	7826.534180
5975.030449	0.085876	0.041427	7903.994629
5975.031383	0.085836	0.041427	7984.165527
5975.032325	0.085807	0.041427	8064.995605
5976.061938	1.135587	0.043554	535.997131
5976.062880	1.603132	0.043554	2046.147705
5976.063776	1.586254	0.043554	3467.430908
5976.064708	1.544081	0.043554	4906.514160
5976.065652	1.501194	0.043554	6323.641113
5976.066572	0.986250	0.043554	7230.991211
5976.067468	0.107358	0.043554	7327.184570
5976.068408	0.085792	0.043554	7407.829102
5976.069346	0.085928	0.043554	7488.429199
5976.070247	0.085895	0.043554	7565.820312
5976.071164	0.085895	0.043554	7644.585937
5976.072097	0.085946	0.043554	7724.773437
5976.073013	0.085909	0.043554	7803.466309
5976.073900	0.085931	0.043554	7879.687500
5976.074843	0.085884	0.043554	7960.675781
5976.075769	0.085865	0.043554	8040.187012
5977.088498	1.145984	0.041121	536.320496
5977.089415	1.601763	0.041121	2005.136963
5977.090309	1.587576	0.041121	3424.429687
5977.091259	1.544344	0.041121	4891.556641
5977.092202	1.501725	0.041121	6307.683105
5977.093124	1.009387	0.041121	7238.337891
5977.094012	0.109980	0.041121	7336.000488
5977.094962	0.085869	0.041121	7417.576172
5977.095889	0.085906	0.041121	7497.210937
5977.096788	0.085939	0.041121	7574.469727
5977.097707	0.085898	0.041121	7653.410156
5977.098644	0.085939	0.041121	7733.934570
5977.099565	0.085924	0.041121	7813.070801
5977.100458	0.085865	0.041121	7889.748535
5977.101406	0.085950	0.041121	7971.229004
5977.102343	0.085895	0.041121	8051.712402
5978.126808	1.102961	0.042644	485.303040
5978.127746	1.599478	0.042644	1985.613037
5978.128692	1.586115	0.042644	3486.077393
5978.129612	1.543726	0.042644	4906.304687
5978.130520	1.502571	0.042644	6270.638672
5978.131477	0.989341	0.042644	7217.437988
5978.132404	0.102869	0.042644	7312.797363
5978.133314	0.085833	0.042644	7390.904785
5978.134209	0.085811	0.042644	7467.705078
5978.135149	0.085836	0.042644	7548.391113
5978.136086	0.085880	0.042644	7628.860840
5978.136986	0.085876	0.042644	7706.149414
5978.137912	0.085854	0.042644	7785.650879
5978.138846	0.085840	0.042644	7865.825195
5978.139780	0.085789	0.042644	7945.951660
5978.140667	0.085880	0.042644	8022.127441
5979.158526	1.126527	0.042160	540.733032
5979.159472	1.603147	0.042160	2057.310059
5979.160366	1.585869	0.042160	3475.077148
5979.161293	1.544517	0.042160	4906.844238
5979.162237	1.501220	0.042160	6323.995605
5979.163185	0.953185	0.042160	7227.614746
5979.164075	0.103389	0.042160	7319.630859
5979.164999	0.085763	0.042160	7398.875977
5979.165939	0.085862	0.042160	7479.585937
5979.166870	0.085891	0.042160	7559.550781
5979.167768	0.085902	0.042160	7636.690918
5979.168684	0.085811	0.042160	7715.293457
5979.169621	0.085876	0.042160	7795.759766
5979.170537	0.085854	0.042160	7874.402344
5979.171425	0.085869	0.042160	7950.654297
5979.172378	0.085924	0.042160	8032.540039
5980.192752	1.112406	0.041673	519.493591
5980.193653	1.601477	0.041673	1962.424316
5980.194583	1.587283	0.041673	3438.597168
5980.195511	1.544377	0.041673	4871.779297
5980.196448	1.501864	0.041673	6279.025879
5980.197356	1.036187	0.041673	7219.883301
5980.198279	0.108311	0.041673	7319.854004
5980.199216	0.085844	0.041673	7400.289551
5980.200138	0.085931	0.041673	7479.518066
5980.201027	0.085891	0.041673	7555.875488
5980.201972	0.085858	0.041673	7637.011230
5980.202912	0.085854	0.041673	7717.714355
5980.203833	0.085920	0.041673	7796.847168
5980.204725	0.085935	0.041673	7873.501465
5980.205656	0.085917	0.041673	7953.489746
5980.206582	0.085833	0.041673	8032.970703
5981.228525	1.117438	0.043035	521.843445
5981.229439	1.601228	0.043035	1985.365967
5981.230373	1.586334	0.043035	3467.002197
5981.231267	1.545264	0.043035	4848.467773
5981.232224	1.502640	0.043035	6286.494629
5981.233167	0.983588	0.043035	7214.017578
5981.234064	0.106150	0.043035	7309.233887
5981.234986	0.085873	0.043035	7388.408691
5981.235916	0.085986	0.043035	7468.375977
5981.236843	0.085891	0.043035	7547.997070
5981.237737	0.085935	0.043035	7624.823242
5981.238697	0.085887	0.043035	7707.275391
5981.239632	0.085880	0.043035	7787.573242
5981.240555	0.085950	0.043035	7866.904785
5981.241443	0.085887	0.043035	7943.172852
5981.242393	0.085895	0.043035	8024.772949
5982.258118	1.092634	0.042583	474.203308
5982.259066	1.600906	0.042583	1991.862061
5982.259981	1.587261	0.042583	3444.205566
5982.260886	1.546216	0.042583	4843.530762
5982.261776	1.505024	0.042583	6183.002441
5982.262745	1.071398	0.042583	7221.186523
5982.263644	0.117286	0.042583	7326.626953
5982.264541	0.085792	0.042583	7403.582520
5982.265480	0.085906	0.042583	7484.248047
5982.266384	0.085972	0.042583	7561.966309
5982.267286	0.085884	0.042583	7639.433594
5982.268172	0.085880	0.042583	7715.523437
5982.269120	0.085939	0.042583	7796.993164
5982.270021	0.085942	0.042583	7874.427246
5982.270918	0.085822	0.042583	7951.409180
5982.271804	0.085913	0.042583	8027.528320
5983.297491	1.103701	0.042974	487.835907
5983.298384	1.599327	0.042974	1916.035400
5983.299336	1.587689	0.042974	3427.515625
5983.300245	1.546403	0.042974	4833.195312
5983.301141	1.505431	0.042974	6182.061523
5983.302092	1.081739	0.042974	7210.795898
5983.302993	0.118425	0.042974	7317.497070
5983.303899	0.085800	0.042974	7395.231445
5983.304789	0.085829	0.042974	7471.619141
5983.305726	0.085920	0.042974	7552.126465
5983.306623	0.085891	0.042974	7629.170898
5983.307523	0.085909	0.042974	7706.489258
5983.308410	0.085752	0.042974	7782.551270
5983.309358	0.085924	0.042974	7864.007324
5983.310258	0.085876	0.042974	7941.295898
5983.311159	0.085822	0.042974	8018.621094
5984.324554	1.103485	0.042789	484.429962
5984.325516	1.601221	0.042789	2024.804321
5984.326437	1.586019	0.042789	3485.528076
5984.327345	1.544645	0.042789	4888.065430
5984.328240	1.503603	0.042789	6233.790527
5984.329200	1.029287	0.042789	7221.906250
5984.330102	0.111456	0.042789	7322.439941
5984.330996	0.085807	0.042789	7399.151367
5984.331920	0.085876	0.042789	7478.500977
5984.332820	0.086030	0.042789	7555.928223
5984.333720	0.085920	0.042789	7633.256836
5984.334617	0.085957	0.042789	7710.360352
5984.335551	0.086001	0.042789	7790.685059
5984.336455	0.085979	0.042789	7868.410156
5984.337360	0.085902	0.042789	7946.151367
5984.338247	0.085950	0.042789	8022.388672
5985.365965	1.102306	0.044590	481.707672
5985.366881	1.599976	0.044590	1947.285278
5985.367789	1.588447	0.044590	3389.595459
5985.368730	1.546362	0.044590	4844.722656
5985.369636	1.504827	0.044590	6208.095703
5985.370545	1.118829	0.044590	7225.111328
5985.371434	0.128401	0.044590	7339.259766
5985.372391	0.085884	0.044590	7421.450684
5985.373291	0.085895	0.044590	7498.755859
5985.374189	0.085873	0.044590	7575.869629
5985.375119	0.085858	0.044590	7655.717773
5985.376031	0.085913	0.044590	7734.070312
5985.376941	0.085913	0.044590	7812.250977
5985.377842	0.085957	0.044590	7889.698242
5985.378779	0.086012	0.044590	7970.291504
5985.379681	0.085876	0.044590	8047.751953
5986.391030	1.133108	0.042386	547.291138
5986.391977	1.602777	0.042386	2065.121094
5986.392899	1.584686	0.042386	3526.201904
5986.393798	1.543550	0.042386	4913.853516
5986.394742	1.501285	0.042386	6331.066895
5986.395688	0.940170	0.042386	7220.467285
5986.396604	0.100261	0.042386	7312.306641
5986.397497	0.085844	0.042386	7388.964844
5986.398433	0.085928	0.042386	7469.393066
5986.399337	0.085986	0.042386	7547.124512
5986.400237	0.085891	0.042386	7624.426758
5986.401127	0.085891	0.042386	7700.869629
5986.402064	0.086005	0.042386	7781.456055
5986.402970	0.085972	0.042386	7859.346191
5986.403867	0.085920	0.042386	7936.416992
5986.404753	0.085942	0.042386	8012.562012
5987.433934	1.106492	0.046036	486.856354
5987.434919	1.602887	0.046036	2065.699951
5987.435840	1.584811	0.046036	3525.310547
5987.436761	1.543063	0.046036	4946.471191
5987.437657	1.501769	0.046036	6292.056152
5987.438621	0.962509	0.046036	7219.914551
5987.439524	0.104143	0.046036	7313.955566
5987.440427	0.085792	0.046036	7391.425781
5987.441311	0.085840	0.046036	7467.308105
5987.442240	0.085972	0.046036	7547.175781
5987.443145	0.085917	0.046036	7624.930664
5987.444038	0.085902	0.046036	7701.641113
5987.444970	0.085913	0.046036	7781.711914
5987.445881	0.085902	0.046036	7859.968750
5987.446776	0.085770	0.046036	7936.732910
5987.447660	0.085876	0.046036	8012.647461
5988.456392	1.094074	0.042910	474.827911
5988.457285	1.598514	0.042910	1902.301270
5988.458260	1.586814	0.042910	3449.444824
5988.459201	1.544055	0.042910	4902.400879
5988.460100	1.503098	0.042910	6253.686035
5988.461043	1.017451	0.042910	7213.142578
5988.461987	0.107230	0.042910	7314.367676
5988.462910	0.085763	0.042910	7393.526855
5988.463799	0.085869	0.042910	7469.864746
5988.464735	0.085917	0.042910	7550.282715
5988.465669	0.085924	0.042910	7630.535645
5988.466568	0.085869	0.042910	7707.731934
5988.467487	0.085836	0.042910	7786.615234
5988.468419	0.085844	0.042910	7866.621582
5988.469342	0.085873	0.042910	7945.882324
5988.470229	0.085822	0.042910	8022.005859
5989.501925	1.119624	0.045460	518.385925
5989.502836	1.601353	0.045460	1977.218018
5989.503730	1.587686	0.045460	3396.608887
5989.504700	1.544275	0.045460	4894.555664
5989.505631	1.501937	0.045460	6292.859375
5989.506542	1.027240	0.045460	7228.674805
5989.507474	0.110933	0.045460	7332.063965
5989.508409	0.085829	0.045460	7412.313965
5989.509338	0.085902	0.045460	7492.117187
5989.510235	0.085917	0.045460	7569.184570
5989.511160	0.085968	0.045460	7648.705078
5989.512070	0.085931	0.045460	7726.902832
5989.512977	0.085884	0.045460	7804.799316
5989.513877	0.085891	0.045460	7882.101562
5989.514818	0.085884	0.045460	7962.917969
5989.515725	0.085961	0.045460	8040.884277
5990.523850	1.103408	0.042511	485.499603
5990.524819	1.601484	0.042511	2037.338013
5990.525754	1.584759	0.042511	3519.088135
5990.526661	1.543330	0.042511	4918.888672
5990.527585	1.501641	0.042511	6306.404785
5990.528533	0.977058	0.042511	7232.655762
5990.529459	0.102407	0.042511	7327.484863
5990.530358	0.085833	0.042511	7404.648437
5990.531304	0.085873	0.042511	7485.884277
5990.532234	0.085865	0.042511	7565.739258
5990.533134	0.085931	0.042511	7643.077637
5990.534048	0.085913	0.042511	7721.602051
5990.534971	0.085913	0.042511	7800.899902
5990.535906	0.085876	0.042511	7881.194336
5990.536793	0.085825	0.042511	7957.321289
5990.537714	0.085880	0.042511	8036.416992
5991.569355	1.101720	0.045725	482.553345
5991.570254	1.599141	0.045725	1920.180786
5991.571217	1.586389	0.045725	3447.873535
5991.572162	1.543817	0.045725	4906.780762
5991.573066	1.502732	0.045725	6265.250488
5991.574004	1.020472	0.045725	7222.453613
5991.574946	0.106340	0.045725	7322.625977
5991.575861	0.085880	0.045725	7401.206055
5991.576749	0.085884	0.045725	7477.470703
5991.577693	0.085862	0.045725	7558.524414
5991.578623	0.085873	0.045725	7638.386230
5991.579524	0.085884	0.045725	7715.767578
5991.580440	0.085942	0.045725	7794.490723
5991.581367	0.085895	0.045725	7874.115234
5991.582298	0.085865	0.045725	7954.056152
5991.583200	0.085851	0.045725	8031.493652
5992.591329	1.112252	0.043538	503.850220
5992.592237	1.600225	0.043538	1956.854126
5992.593133	1.588711	0.043538	3380.339355
5992.594066	1.546491	0.043538	4823.214844
5992.595013	1.503450	0.043538	6246.981445
5992.595949	1.043313	0.043538	7223.522461
5992.596834	0.115027	0.043538	7325.321289
5992.597775	0.085884	0.043538	7406.137695
5992.598713	0.085891	0.043538	7486.703613
5992.599609	0.086016	0.043538	7563.773437
5992.600522	0.085920	0.043538	7642.218750
5992.601455	0.085928	0.043538	7722.389160
5992.602379	0.085920	0.043538	7801.779785
5992.603267	0.085975	0.043538	7878.125977
5992.604209	0.085917	0.043538	7959.059570
5992.605141	0.085917	0.043538	8039.133789
5993.636812	1.103936	0.044980	484.627716
5993.637786	1.603250	0.044980	2046.192749
5993.638694	1.586228	0.044980	3486.487793
5993.639597	1.544674	0.044980	4881.328613
5993.640494	1.503871	0.044980	6230.300781
5993.641462	1.026947	0.044980	7224.385742
5993.642359	0.110684	0.044980	7323.668945
5993.643264	0.085814	0.044980	7401.330566
5993.644167	0.085939	0.044980	7478.933105
5993.645107	0.085928	0.044980	7559.705078
5993.646016	0.085909	0.044980	7637.796875
5993.646913	0.085898	0.044980	7714.847656
5993.647846	0.085968	0.044980	7795.055664
5993.648751	0.085898	0.044980	7872.793945
5993.649656	0.085909	0.044980	7950.541992
5993.650542	0.085920	0.044980	8026.667480
5994.658772	1.107184	0.042692	490.482422
5994.659669	1.599056	0.042692	1924.835937
5994.660622	1.586851	0.042692	3437.104492
5994.661543	1.544795	0.042692	4859.860352
5994.662465	1.503424	0.042692	6246.017578
5994.663365	1.081260	0.042692	7219.151367
5994.664318	0.113042	0.042692	7326.880371
5994.665260	0.085741	0.042692	7407.648437
5994.666161	0.085869	0.042692	7485.016602
5994.667083	0.085939	0.042692	7564.251953
5994.667995	0.085869	0.042692	7642.564453
5994.668885	0.085847	0.042692	7718.968262
5994.669787	0.085847	0.042692	7796.402344
5994.670677	0.085895	0.042692	7872.848633
5994.671630	0.085902	0.042692	7954.713379
5994.672536	0.085902	0.042692	8032.540527
5995.703796	1.125147	0.044457	536.694885
5995.704732	1.602378	0.044457	2036.520508
5995.705632	1.586210	0.044457	3464.109375
5995.706566	1.544205	0.044457	4906.396973
5995.707497	1.501384	0.044457	6304.185547
5995.708431	0.982826	0.044457	7222.145020
5995.709329	0.105769	0.044457	7317.125488
5995.710254	0.085763	0.044457	7396.456055
5995.711189	0.085928	0.044457	7476.798340
5995.712102	0.085833	0.044457	7555.163574
5995.713001	0.085858	0.044457	7632.350098
5995.713934	0.085939	0.044457	7712.530762
5995.714866	0.085924	0.044457	7792.611816
5995.715791	0.085891	0.044457	7872.061035
5995.716681	0.085865	0.044457	7948.481445
5995.717634	0.085814	0.044457	8030.262207
5996.726248	1.118683	0.041403	522.424927
5996.727195	1.602561	0.041403	2040.050171
5996.728143	1.583672	0.041403	3541.371094
5996.729043	1.542447	0.041403	4929.573730
5996.729970	1.499934	0.041403	6320.012695
5996.730920	0.936654	0.041403	7209.833984
5996.731836	0.100378	0.041403	7301.780762
5996.732734	0.085796	0.041403	7378.825684
5996.733689	0.085800	0.041403	7460.764160
5996.734624	0.085873	0.041403	7541.055176
5996.735542	0.085961	0.041403	7619.967285
5996.736428	0.085913	0.041403	7696.086426
5996.737368	0.085891	0.041403	7776.824219
5996.738297	0.085887	0.041403	7856.613770
5996.739202	0.085979	0.041403	7934.424805
5996.740129	0.085880	0.041403	8014.035645
5997.770216	1.117683	0.044352	518.604919
5997.771143	1.601656	0.044352	2003.340332
5997.772039	1.586711	0.044352	3425.033691
5997.772964	1.545055	0.044352	4854.209473
5997.773909	1.502142	0.044352	6273.733887
5997.774852	1.010354	0.044352	7226.497559
5997.775753	0.109611	0.044352	7325.256836
5997.776688	0.085811	0.044352	7405.489746
5997.777623	0.085961	0.044352	7485.862793
5997.778537	0.085961	0.044352	7564.430664
5997.779432	0.085869	0.044352	7641.283691
5997.780364	0.085847	0.044352	7721.293457
5997.781300	0.085924	0.044352	7801.718262
5997.782204	0.085935	0.044352	7879.403320
5997.783112	0.085924	0.044352	7957.422363
5997.784037	0.085869	0.044352	8036.851562
5998.794708	1.109604	0.042821	493.773987
5998.795608	1.599086	0.042821	1932.951172
5998.796580	1.585763	0.042821	3474.312744
5998.797509	1.543495	0.042821	4908.219727
5998.798403	1.502560	0.042821	6251.508301
5998.799341	1.028844	0.042821	7216.563965
5998.800288	0.108105	0.042821	7318.939941
5998.801212	0.085854	0.042821	7398.269531
5998.802113	0.085902	0.042821	7475.667480
5998.803038	0.085891	0.042821	7555.116699
5998.803976	0.085862	0.042821	7635.655273
5998.804893	0.085807	0.042821	7714.340332
5998.805791	0.085895	0.042821	7791.473633
5998.806724	0.085898	0.042821	7871.616699
5998.807652	0.085975	0.042821	7951.401855
5998.808556	0.085906	0.042821	8029.060547
5999.836659	1.139150	0.044142	536.539856
5999.837559	1.601111	0.044142	1977.539551
5999.838456	1.587664	0.044142	3401.673828
5999.839394	1.544839	0.044142	4850.732422
5999.840334	1.502285	0.044142	6262.880371
5999.841290	0.996903	0.044142	7215.919922
5999.842188	0.107278	0.044142	7312.255371
5999.843103	0.085833	0.044142	7390.791992
5999.844037	0.085964	0.044142	7471.082520
5999.844950	0.085913	0.044142	7549.520996
5999.845840	0.085913	0.044142	7625.983398
5999.846780	0.085913	0.044142	7706.741699
5999.847714	0.085865	0.044142	7786.939941
5999.848606	0.085876	0.044142	7863.541992
5999.849530	0.085891	0.044142	7942.905273
5999.850464	0.085876	0.044142	8023.113770
6000.864219	1.109044	0.043043	493.524658
6000.865113	1.599071	0.043043	1923.094116
6000.866064	1.586503	0.043043	3431.858154
6000.866997	1.544194	0.043043	4872.591309
6000.867925	1.502124	0.043043	6266.562500
6000.868834	1.040131	0.043043	7212.041016
6000.869783	0.108051	0.043043	7314.581055
6000.870712	0.085822	0.043043	7394.309082
6000.871610	0.085957	0.043043	7471.498535
6000.872526	0.085935	0.043043	7550.214844
6000.873449	0.085961	0.043043	7629.556641
6000.874384	0.085902	0.043043	7709.875000
6000.875275	0.085953	0.043043	7786.459473
6000.876206	0.085917	0.043043	7866.447754
6000.877129	0.085906	0.043043	7945.738770
6000.878047	0.085968	0.043043	8024.657227
6001.901511	1.096417	0.042998	476.941528
6001.902451	1.599144	0.042998	1980.137207
6001.903404	1.585415	0.042998	3491.037598
6001.904335	1.543030	0.042998	4927.598633
6001.905244	1.501355	0.042998	6292.330078
6001.906209	0.959806	0.042998	7218.542969
6001.907155	0.100463	0.042998	7313.580566
6001.908051	0.085836	0.042998	7390.489746
6001.908968	0.085928	0.042998	7469.285645
6001.909904	0.085880	0.042998	7549.669434
6001.910829	0.085946	0.042998	7629.169434
6001.911715	0.085983	0.042998	7705.350098
6001.912633	0.085865	0.042998	7784.174805
6001.913570	0.085869	0.042998	7864.634277
6001.914484	0.085909	0.042998	7943.155273
6001.915377	0.085935	0.042998	8019.895508
6002.933735	1.130592	0.043470	525.725342
6002.934646	1.601122	0.043470	1984.347412
6002.935539	1.587089	0.043470	3401.617676
6002.936495	1.544377	0.043470	4878.042480
6002.937442	1.501754	0.043470	6300.203613
6002.938346	1.030818	0.043470	7232.062988
6002.939276	0.110288	0.043470	7334.630859
6002.940201	0.085807	0.043470	7414.002441
6002.941121	0.085924	0.043470	7493.052734
6002.942015	0.085869	0.043470	7569.819824
6002.942969	0.085880	0.043470	7651.749512
6002.943902	0.085869	0.043470	7731.865234
6002.944798	0.085895	0.043470	7808.827148
6002.945713	0.085891	0.043470	7887.417480
6002.946641	0.085924	0.043470	7967.154785
6002.947558	0.085924	0.043470	8045.947266
6003.966945	1.134034	0.044013	514.851624
6003.967881	1.601660	0.044013	2014.005615
6003.968775	1.586213	0.044013	3432.080322
6003.969722	1.543440	0.044013	4893.717773
6003.970662	1.500934	0.044013	6304.595703
6003.971574	1.015774	0.044013	7230.981445
6003.972502	0.108040	0.044013	7331.242187
6003.973438	0.085792	0.044013	7411.543945
6003.974351	0.085909	0.044013	7489.979492
6003.975240	0.085840	0.044013	7566.291016
6003.976184	0.085898	0.044013	7647.378906
6003.977116	0.085880	0.044013	7727.418945
6003.978012	0.085942	0.044013	7804.423340
6003.978942	0.085906	0.044013	7884.315918
6003.979878	0.085818	0.044013	7964.641602
6003.980787	0.085880	0.044013	8042.706543
6005.003245	1.119485	0.045246	522.799438
6005.004159	1.601561	0.045246	1986.626465
6005.005058	1.586964	0.045246	3413.307129
6005.006019	1.543638	0.045246	4896.743164
6005.006961	1.501179	0.045246	6310.854004
6005.007873	1.005059	0.045246	7227.467285
6005.008792	0.109069	0.045246	7327.701172
6005.009728	0.085862	0.045246	7408.067871
6005.010652	0.085909	0.045246	7487.448242
6005.011539	0.085961	0.045246	7563.695312
6005.012466	0.085902	0.045246	7643.326660
6005.013391	0.085924	0.045246	7722.806641
6005.014303	0.085935	0.045246	7801.179199
6005.015204	0.085873	0.045246	7878.550781
6005.016151	0.085931	0.045246	7959.927734
6005.017093	0.085840	0.045246	8040.789062
6006.031867	1.133320	0.044654	554.193665
6006.032811	1.602638	0.044654	2067.083984
6006.033726	1.584218	0.044654	3516.643066
6006.034627	1.543008	0.044654	4906.893066
6006.035573	1.500267	0.044654	6326.145996
6006.036515	0.954298	0.044654	7225.094727
6006.037412	0.102902	0.044654	7317.397461
6006.038330	0.085854	0.044654	7396.211914
6006.039269	0.085935	0.044654	7476.904785
6006.040196	0.085953	0.044654	7556.583496
6006.041094	0.085939	0.044654	7633.756348
6006.042007	0.085986	0.044654	7712.261719
6006.042935	0.085950	0.044654	7792.022949
6006.043872	0.085822	0.044654	7872.437500
6006.044763	0.085928	0.044654	7948.999023
6006.045683	0.086012	0.044654	8028.129883
6007.073744	1.102324	0.045073	488.329590
6007.074638	1.598826	0.045073	1917.679810
6007.075623	1.585873	0.045073	3479.764648
6007.076566	1.542989	0.045073	4934.803711
6007.077472	1.501615	0.045073	6295.266602
6007.078414	0.982936	0.045073	7221.191895
6007.079348	0.103268	0.045073	7317.644043
6007.080264	0.085785	0.045073	7396.223145
6007.081162	0.085876	0.045073	7473.340332
6007.082093	0.085917	0.045073	7553.328613
6007.083025	0.085946	0.045073	7633.430176
6007.083940	0.085979	0.045073	7712.101074
6007.084828	0.085906	0.045073	7788.385254
6007.085778	0.085811	0.045073	7869.905273
6007.086714	0.085902	0.045073	7950.309570
6007.087608	0.085942	0.045073	8027.142090
6008.096229	1.140168	0.044187	529.038147
6008.097165	1.602165	0.044187	2028.665039
6008.098064	1.585931	0.044187	3454.417236
6008.099014	1.543176	0.044187	4920.434570
6008.099958	1.500564	0.044187	6336.966797
6008.100857	1.004092	0.044187	7239.645508
6008.101777	0.107439	0.044187	7338.489258
6008.102717	0.085895	0.044187	7419.230469
6008.103636	0.085990	0.044187	7498.255371
6008.104539	0.085928	0.044187	7575.848145
6008.105484	0.085931	0.044187	7657.053223
6008.106419	0.085898	0.044187	7737.368164
6008.107318	0.085917	0.044187	7814.607422
6008.108229	0.085968	0.044187	7892.924316
6008.109165	0.085876	0.044187	7973.304687
6008.110085	0.085851	0.044187	8052.287598
6009.143774	1.114578	0.047478	503.789093
6009.144672	1.599532	0.047478	1940.169189
6009.145633	1.586180	0.047478	3464.488525
6009.146553	1.544150	0.047478	4885.106934
6009.147445	1.503347	0.047478	6226.092773
6009.148380	1.053695	0.047478	7211.297852
6009.149318	0.111284	0.047478	7315.682617
6009.150230	0.085840	0.047478	7393.968750
6009.151127	0.085939	0.047478	7471.055664
6009.152073	0.085924	0.047478	7552.339844
6009.153010	0.085997	0.047478	7632.919434
6009.153913	0.086012	0.047478	7710.588379
6009.154833	0.085935	0.047478	7789.648437
6009.155780	0.085906	0.047478	7871.000977
6009.156707	0.085854	0.047478	7950.587891
6009.157601	0.085862	0.047478	8027.348145
6010.160578	1.092920	0.043357	473.234283
6010.161514	1.599298	0.043357	1970.177246
6010.162466	1.585569	0.043357	3479.638672
6010.163385	1.543901	0.043357	4898.484375
6010.164278	1.502688	0.043357	6240.384766
6010.165241	1.011065	0.043357	7214.040039
6010.166181	0.106886	0.043357	7314.512695
6010.167082	0.085811	0.043357	7391.828125
6010.168002	0.085895	0.043357	7470.851562
6010.168927	0.085902	0.043357	7550.311035
6010.169845	0.085924	0.043357	7629.189453
6010.170744	0.085902	0.043357	7706.415527
6010.171673	0.085880	0.043357	7786.198242
6010.172604	0.085847	0.043357	7866.122070
6010.173514	0.085942	0.043357	7944.329590
6010.174414	0.085895	0.043357	8021.634766
6011.213260	1.100643	0.047244	484.283051
6011.214158	1.599188	0.047244	1920.354126
6011.215136	1.586030	0.047244	3471.491699
6011.216086	1.543004	0.047244	4937.345703
6011.216992	1.501256	0.047244	6297.483887
6011.217929	0.991165	0.047244	7226.205078
6011.218873	0.103770	0.047244	7324.163574
6011.219789	0.085851	0.047244	7402.802734
6011.220677	0.085917	0.047244	7479.096680
6011.221610	0.085979	0.047244	7559.314941
6011.222539	0.085844	0.047244	7639.063477
6011.223467	0.085931	0.047244	7718.807617
6011.224359	0.085972	0.047244	7795.494141
6011.225305	0.085950	0.047244	7876.802734
6011.226239	0.085884	0.047244	7957.018066
6011.227155	0.085942	0.047244	8035.741211
6012.226509	1.103233	0.042366	485.422302
6012.227405	1.598624	0.042366	1917.789551
6012.228370	1.586243	0.042366	3448.513672
6012.229315	1.543513	0.042366	4907.133789
6012.230216	1.502369	0.042366	6260.768555
6012.231152	1.017942	0.042366	7213.562012
6012.232094	0.107498	0.042366	7314.824707
6012.233020	0.085847	0.042366	7394.319336
6012.233908	0.085854	0.042366	7470.558105
6012.234844	0.085931	0.042366	7550.989746
6012.235782	0.085891	0.042366	7631.555664
6012.236679	0.085957	0.042366	7708.659180
6012.237596	0.085928	0.042366	7787.455078
6012.238536	0.085917	0.042366	7868.216797
6012.239463	0.085865	0.042366	7947.813965
6012.240363	0.085979	0.042366	8025.195312
6013.281257	1.139627	0.048876	535.624451
6013.282215	1.602773	0.048876	2071.081299
6013.283133	1.584371	0.048876	3525.534180
6013.284029	1.542979	0.048876	4908.042969
6013.284978	1.500278	0.048876	6331.807129
6013.285920	0.962648	0.048876	7238.621094
6013.286814	0.104747	0.048876	7332.265137
6013.287739	0.085840	0.048876	7411.666992
6013.288669	0.085854	0.048876	7491.511719
6013.289606	0.085851	0.048876	7571.954102
6013.290505	0.085898	0.048876	7649.176758
6013.291425	0.085961	0.048876	7728.260742
6013.292359	0.085902	0.048876	7808.493164
6013.293277	0.085898	0.048876	7887.348145
6013.294178	0.085920	0.048876	7964.762207
6013.295120	0.085796	0.048876	8045.582031
6014.293964	1.102727	0.041407	484.097168
6014.294934	1.601466	0.041407	2037.519287
6014.295864	1.584419	0.041407	3511.028809
6014.296769	1.543513	0.041407	4907.908203
6014.297689	1.501747	0.041407	6289.515137
6014.298639	0.983276	0.041407	7223.627930
6014.299557	0.103656	0.041407	7318.784180
6014.300443	0.085796	0.041407	7394.799316
6014.301387	0.085851	0.041407	7475.842285
6014.302324	0.085840	0.041407	7556.274414
6014.303227	0.085862	0.041407	7633.807617
6014.304153	0.085800	0.041407	7713.257812
6014.305087	0.085829	0.041407	7793.421875
6014.306015	0.085876	0.041407	7873.115234
6014.306920	0.085880	0.041407	7950.836914
6014.307839	0.085869	0.041407	8029.750488
6015.349215	1.108447	0.047852	494.367493
6015.350116	1.599415	0.047852	1935.440674
6015.351006	1.588748	0.047852	3349.425781
6015.351961	1.545659	0.047852	4825.530273
6015.352906	1.503318	0.047852	6246.166016
6015.353810	1.085852	0.047852	7227.776367
6015.354732	0.117275	0.047852	7335.904297
6015.355668	0.085778	0.047852	7416.191895
6015.356591	0.085953	0.047852	7495.526855
6015.357487	0.085833	0.047852	7572.432617
6015.358433	0.085895	0.047852	7653.688965
6015.359365	0.085950	0.047852	7733.793945
6015.360263	0.085950	0.047852	7810.976562
6015.361183	0.085876	0.047852	7889.982910
6015.362128	0.085961	0.047852	7971.215820
6015.363043	0.085917	0.047852	8049.829590
6016.361460	1.129025	0.041524	529.512573
6016.362389	1.601550	0.041524	2017.352783
6016.363283	1.586624	0.041524	3435.794189
6016.364228	1.544220	0.041524	4895.082031
6016.365166	1.500989	0.041524	6303.009277
6016.366100	0.987784	0.041524	7225.600098
6016.366993	0.107604	0.041524	7321.690430
6016.367931	0.085876	0.041524	7402.242676
6016.368869	0.085924	0.041524	7482.839355
6016.369765	0.085913	0.041524	7559.817383
6016.370681	0.085920	0.041524	7638.520508
6016.371612	0.085822	0.041524	7718.420410
6016.372529	0.085906	0.041524	7797.195801
6016.373417	0.085975	0.041524	7873.541992
6016.374358	0.085931	0.041524	7954.403320
6016.375284	0.085906	0.041524	8033.952148
6017.415655	1.120609	0.046402	522.203857
6017.416563	1.601184	0.046402	1976.078979
6017.417494	1.586155	0.046402	3452.789062
6017.418437	1.543586	0.046402	4908.391113
6017.419365	1.501234	0.046402	6301.536133
6017.420280	1.013730	0.046402	7229.099609
6017.421224	0.104106	0.046402	7327.375977
6017.422150	0.085844	0.046402	7406.867187
6017.423071	0.085913	0.046402	7485.993164
6017.423957	0.085898	0.046402	7562.099121
6017.424901	0.085953	0.046402	7643.239258
6017.425823	0.085909	0.046402	7722.447754
6017.426722	0.085895	0.046402	7799.666992
6017.427644	0.085935	0.046402	7878.898926
6017.428586	0.085942	0.046402	7959.856445
6017.429496	0.085935	0.046402	8038.057129
6018.429911	1.107872	0.042092	496.326782
6018.430851	1.601576	0.042092	2001.808228
6018.431818	1.583386	0.042092	3532.942627
6018.432740	1.541708	0.042092	4954.397461
6018.433635	1.500824	0.042092	6297.634766
6018.434597	0.944465	0.042092	7206.210449
6018.435546	0.099983	0.042092	7301.094238
6018.436438	0.085887	0.042092	7377.706055
6018.437364	0.085884	0.042092	7457.234375
6018.438285	0.085950	0.042092	7536.394043
6018.439202	0.085862	0.042092	7615.129395
6018.440095	0.085873	0.042092	7691.813965
6018.441030	0.085928	0.042092	7772.156250
6018.441969	0.085902	0.042092	7852.818359
6018.442871	0.085851	0.042092	7930.255859
6018.443794	0.085873	0.042092	8009.516602
6019.482570	1.094912	0.045677	476.286743
6019.483510	1.598635	0.045677	1979.003906
6019.484471	1.585173	0.045677	3502.355469
6019.485394	1.542777	0.045677	4926.338867
6019.486296	1.501934	0.045677	6281.083008
6019.487252	0.983742	0.045677	7221.540039
6019.488171	0.103458	0.045677	7316.618164
6019.489091	0.085833	0.045677	7395.583984
6019.489977	0.085950	0.045677	7471.735352
6019.490919	0.085814	0.045677	7552.572266
6019.491842	0.085807	0.045677	7631.771973
6019.492741	0.085931	0.045677	7709.024414
6019.493665	0.085858	0.045677	7788.357422
6019.494607	0.085854	0.045677	7869.232422
6019.495539	0.085840	0.045677	7949.235352
6019.496436	0.085884	0.045677	8026.272949
6020.499967	1.161204	0.042918	567.828552
6020.500880	1.601942	0.042918	2030.401855
6020.501812	1.584976	0.042918	3507.599121
6020.502705	1.543978	0.042918	4886.371582
6020.503637	1.501670	0.042918	6285.927734
6020.504594	0.975128	0.042918	7219.125488
6020.505513	0.103806	0.042918	7314.523437
6020.506398	0.085847	0.042918	7390.498047
6020.507332	0.085847	0.042918	7470.679199
6020.508269	0.085836	0.042918	7551.107910
6020.509167	0.085979	0.042918	7628.316895
6020.510081	0.085873	0.042918	7706.804687
6020.511019	0.085887	0.042918	7787.367187
6020.511934	0.085851	0.042918	7865.920898
6020.512827	0.085898	0.042918	7942.628418
6020.513779	0.085873	0.042918	8024.379395
6021.547503	1.109480	0.045597	515.908203
6021.548411	1.600986	0.045597	1969.603760
6021.549306	1.587312	0.045597	3390.248047
6021.550274	1.544202	0.045597	4885.035156
6021.551197	1.501853	0.045597	6271.245605
6021.552123	1.023984	0.045597	7219.455078
6021.553018	0.111658	0.045597	7319.388672
6021.553953	0.085811	0.045597	7399.621582
6021.554884	0.085840	0.045597	7479.538574
6021.555781	0.085836	0.045597	7556.533691
6021.556699	0.085913	0.045597	7635.401855
6021.557646	0.085887	0.045597	7716.737305
6021.558555	0.085931	0.045597	7794.849121
6021.559440	0.085920	0.045597	7870.888672
6021.560392	0.085906	0.045597	7952.670898
6021.561325	0.085836	0.045597	8032.755859
6022.567891	1.111556	0.043562	495.754150
6022.568789	1.598899	0.043562	1931.565308
6022.569760	1.585572	0.043562	3471.156250
6022.570667	1.544330	0.043562	4871.863281
6022.571596	1.502314	0.043562	6267.513672
6022.572496	1.055281	0.043562	7217.266113
6022.573445	0.110035	0.043562	7321.689941
6022.574361	0.085862	0.043562	7400.339355
6022.575258	0.085946	0.043562	7477.433105
6022.576188	0.085924	0.043562	7557.342285
6022.577091	0.085858	0.043562	7634.872070
6022.578009	0.085891	0.043562	7713.720215
6022.578902	0.085873	0.043562	7790.404785
6022.579862	0.085891	0.043562	7872.860352
6022.580763	0.085887	0.043562	7950.245117
6022.581686	0.085917	0.043562	8029.546387
6023.613413	1.118906	0.045041	505.745575
6023.614319	1.600005	0.045041	1955.350098
6023.615213	1.588330	0.045041	3375.317139
6023.616169	1.545480	0.045041	4852.795898
6023.617082	1.503450	0.045041	6225.445312
6023.618010	1.065688	0.045041	7214.404297
6023.618902	0.118231	0.045041	7319.866699
6023.619844	0.085822	0.045041	7400.710449
6023.620771	0.085898	0.045041	7480.338379
6023.621672	0.085917	0.045041	7557.749512
6023.622591	0.085887	0.045041	7636.680176
6023.623526	0.085829	0.045041	7716.930176
6023.624449	0.085935	0.045041	7796.248047
6023.625342	0.085920	0.045041	7872.975098
6023.626281	0.085825	0.045041	7953.564941
6023.627185	0.085876	0.045041	8031.197266
6024.636379	1.123121	0.045294	505.404633
6024.637284	1.600188	0.045294	1953.574829
6024.638182	1.588286	0.045294	3379.855957
6024.639123	1.545604	0.045294	4834.269531
6024.640037	1.503776	0.045294	6208.720703
6024.640970	1.081293	0.045294	7217.566895
6024.641857	0.120985	0.045294	7324.880859
6024.642808	0.085851	0.045294	7406.524902
6024.643703	0.085858	0.045294	7483.368164
6024.644619	0.085895	0.045294	7562.047852
6024.645504	0.085873	0.045294	7638.045410
6024.646442	0.085939	0.045294	7718.655762
6024.647363	0.085935	0.045294	7797.801758
6024.648261	0.085829	0.045294	7874.875977
6024.649196	0.085895	0.045294	7955.187500
6024.650102	0.085913	0.045294	8033.024902
6025.680364	1.123726	0.044610	521.408691
6025.681277	1.600616	0.044610	1982.771484
6025.682173	1.586664	0.044610	3404.422363
6025.683132	1.544011	0.044610	4885.128906
6025.684054	1.502036	0.044610	6270.006348
6025.684959	1.055687	0.044610	7225.403320
6025.685908	0.114470	0.044610	7334.035645
6025.686814	0.085822	0.044610	7411.790039
6025.687727	0.085964	0.044610	7490.275391
6025.688626	0.085902	0.044610	7567.501465
6025.689575	0.085887	0.044610	7649.008789
6025.690494	0.085898	0.044610	7727.949219
6025.691421	0.085898	0.044610	7807.577148
6025.692310	0.085844	0.044610	7883.892090
6025.693259	0.085887	0.044610	7965.399414
6025.694172	0.085950	0.044610	8043.871582
6026.705897	1.132163	0.044344	520.794983
6026.706799	1.600192	0.044344	1964.167725
6026.707695	1.587671	0.044344	3386.720703
6026.708644	1.545769	0.044344	4853.655273
6026.709549	1.503589	0.044344	6214.403320
6026.710480	1.075320	0.044344	7215.525879
6026.711373	0.119286	0.044344	7322.048340
6026.712313	0.085851	0.044344	7402.748047
6026.713229	0.085975	0.044344	7481.501465
6026.714147	0.085854	0.044344	7560.315918
6026.715033	0.085935	0.044344	7636.454590
6026.715987	0.085924	0.044344	7718.426270
6026.716882	0.085884	0.044344	7795.292480
6026.717806	0.085920	0.044344	7874.683105
6026.718694	0.085906	0.044344	7950.967285
6026.719619	0.085983	0.044344	8030.501465
6027.747777	1.091349	0.046016	471.462708
6027.748732	1.600624	0.046016	2000.058350
6027.749650	1.585862	0.046016	3455.879395
6027.750574	1.544198	0.046016	4882.718262
6027.751469	1.502985	0.046016	6227.889648
6027.752446	1.009369	0.046016	7214.042969
6027.753342	0.109636	0.046016	7312.276855
6027.754230	0.085928	0.046016	7388.580566
6027.755152	0.085946	0.046016	7467.822754
6027.756063	0.085895	0.046016	7546.072754
6027.756971	0.085906	0.046016	7624.075195
6027.757864	0.085851	0.046016	7700.740234
6027.758798	0.085931	0.046016	7781.000000
6027.759719	0.085854	0.046016	7860.071777
6027.760636	0.085931	0.046016	7938.871094
6027.761526	0.085898	0.046016	8015.320801
6028.773350	1.115808	0.045029	518.850708
6028.774261	1.601367	0.045029	1977.696289
6028.775203	1.585968	0.045029	3471.678223
6028.776123	1.543704	0.045029	4891.885742
6028.777043	1.501879	0.045029	6273.614258
6028.777946	1.050634	0.045029	7222.336426
6028.778906	0.107454	0.045029	7325.491699
6028.779803	0.085792	0.045029	7402.447266
6028.780690	0.085763	0.045029	7478.519043
6028.781612	0.085909	0.045029	7557.727539
6028.782541	0.085847	0.045029	7637.479492
6028.783446	0.085935	0.045029	7715.250488
6028.784338	0.085906	0.045029	7791.878418
6028.785268	0.085990	0.045029	7871.849121
6028.786185	0.085873	0.045029	7950.594727
6028.787105	0.085876	0.045029	8029.601074
6029.814218	1.094678	0.045444	478.374207
6029.815185	1.600367	0.045444	2025.929443
6029.816091	1.585598	0.045444	3462.481445
6029.817013	1.543707	0.045444	4885.779297
6029.817923	1.502036	0.045444	6252.632324
6029.818896	0.986532	0.045444	7212.527832
6029.819799	0.105802	0.045444	7308.066895
6029.820692	0.085862	0.045444	7384.741699
6029.821626	0.085994	0.045444	7465.059570
6029.822532	0.085891	0.045444	7542.876953
6029.823446	0.085961	0.045444	7621.444824
6029.824336	0.085873	0.045444	7697.871582
6029.825274	0.085924	0.045444	7778.468262
6029.826170	0.085931	0.045444	7855.462891
6029.827080	0.085913	0.045444	7933.643555
6029.827971	0.085891	0.045444	8010.172363
6030.840777	1.093264	0.045661	474.476685
6030.841711	1.599423	0.045661	1968.337402
6030.842626	1.586895	0.045661	3420.345703
6030.843548	1.544963	0.045661	4844.801758
6030.844453	1.503534	0.045661	6205.500000
6030.845430	1.023288	0.045661	7205.252930
6030.846335	0.109991	0.045661	7304.795410
6030.847226	0.085807	0.045661	7381.249512
6030.848149	0.085873	0.045661	7460.510254
6030.849065	0.085906	0.045661	7539.199707
6030.849964	0.085858	0.045661	7616.386230
6030.850851	0.085931	0.045661	7692.607422
6030.851784	0.085898	0.045661	7772.750488
6030.852701	0.085928	0.045661	7851.546387
6030.853624	0.085898	0.045661	7930.830566
6030.854521	0.085858	0.045661	8007.845215
6031.882721	1.135459	0.044968	520.040222
6031.883659	1.601946	0.044968	2022.665283
6031.884558	1.585346	0.044968	3447.890869
6031.885521	1.542784	0.044968	4933.592285
6031.886428	1.501494	0.044968	6295.447266
6031.887328	1.038823	0.044968	7230.388184
6031.888264	0.109969	0.044968	7333.319824
6031.889162	0.085785	0.044968	7410.354492
6031.890075	0.085887	0.044968	7488.769531
6031.890982	0.085891	0.044968	7566.672852
6031.891929	0.085909	0.044968	7648.029297
6031.892835	0.085836	0.044968	7725.796875
6031.893726	0.085836	0.044968	7802.276855
6031.894651	0.085891	0.044968	7881.726074
6031.895572	0.085876	0.044968	7960.818359
6031.896476	0.085851	0.044968	8038.427734
6032.907722	1.118884	0.044332	490.071320
6032.908710	1.602978	0.044332	2073.813965
6032.909624	1.584265	0.044332	3521.832275
6032.910526	1.543088	0.044332	4913.698242
6032.911458	1.501432	0.044332	6313.032715
6032.912387	0.999111	0.044332	7241.207031
6032.913310	0.104868	0.044332	7338.000488
6032.914199	0.085913	0.044332	7414.377441
6032.915158	0.085961	0.044332	7496.813965
6032.916056	0.085840	0.044332	7573.897949
6032.916944	0.085957	0.044332	7650.228027
6032.917865	0.085876	0.044332	7729.320312
6032.918789	0.085869	0.044332	7808.663574
6032.919692	0.085913	0.044332	7886.243164
6032.920583	0.085972	0.044332	7962.843750
6032.921513	0.085822	0.044332	8042.657715
6033.950667	1.098409	0.045045	482.201721
6033.951626	1.601759	0.045045	2018.288574
6033.952527	1.585950	0.045045	3447.229248
6033.953448	1.544458	0.045045	4869.674805
6033.954352	1.502626	0.045045	6228.048340
6033.955315	1.017682	0.045045	7208.076172
6033.956228	0.108706	0.045045	7307.324707
6033.957118	0.085807	0.045045	7383.692871
6033.958042	0.085854	0.045045	7463.022461
6033.958956	0.085880	0.045045	7541.517090
6033.959872	0.085942	0.045045	7620.240234
6033.960761	0.085884	0.045045	7696.590820
6033.961714	0.085909	0.045045	7778.462402
6033.962617	0.085865	0.045045	7855.999023
6033.963538	0.085887	0.045045	7935.101562
6033.964424	0.085884	0.045045	8011.194824
6034.974733	1.179045	0.044352	588.343689
6034.975648	1.602521	0.044352	2054.650146
6034.976576	1.584357	0.044352	3524.933105
6034.977471	1.542821	0.044352	4905.757812
6034.978432	1.500128	0.044352	6347.380859
6034.979349	0.981471	0.044352	7247.389648
6034.980239	0.107128	0.044352	7342.733398
6034.981199	0.085887	0.044352	7425.185547
6034.982107	0.085840	0.044352	7503.127930
6034.983029	0.085990	0.044352	7582.410645
6034.983915	0.086034	0.044352	7658.636719
6034.984855	0.085924	0.044352	7739.405273
6034.985762	0.085869	0.044352	7817.288574
6034.986682	0.085990	0.044352	7896.399414
6034.987580	0.085946	0.044352	7973.579102
6034.988529	0.085895	0.044352	8055.093262
6036.018649	1.101043	0.045927	491.064972
6036.019542	1.599012	0.045927	1918.983032
6036.020442	1.588520	0.045927	3348.651367
6036.021397	1.545483	0.045927	4824.587891
6036.022319	1.503039	0.045927	6210.390137
6036.023256	1.065593	0.045927	7208.851074
6036.024146	0.116993	0.045927	7312.975098
6036.025100	0.085781	0.045927	7394.810547
6036.026005	0.085942	0.045927	7472.588379
6036.026896	0.085917	0.045927	7549.140137
6036.027842	0.085906	0.045927	7630.407227
6036.028749	0.085865	0.045927	7708.287109
6036.029669	0.085873	0.045927	7787.290039
6036.030557	0.085887	0.045927	7863.558105
6036.031485	0.085939	0.045927	7943.309082
6036.032385	0.085851	0.045927	8020.574707
6037.041165	1.175980	0.044726	592.694031
6037.042070	1.602349	0.044726	2042.819580
6037.042983	1.585162	0.044726	3490.072754
6037.043883	1.543975	0.044726	4879.649902
6037.044827	1.501366	0.044726	6296.939453
6037.045751	1.018557	0.044726	7238.085937
6037.046642	0.110548	0.044726	7336.584473
6037.047580	0.085865	0.044726	7417.126465
6037.048486	0.085891	0.044726	7494.943848
6037.049411	0.085862	0.044726	7574.366211
6037.050300	0.085895	0.044726	7650.726562
6037.051244	0.085968	0.044726	7731.880371
6037.052149	0.085957	0.044726	7809.671387
6037.053061	0.085964	0.044726	7888.070801
6037.053952	0.085928	0.044726	7964.632324
6037.054900	0.085913	0.044726	8046.078125
6038.088663	1.106001	0.047309	495.488403
6038.089556	1.599236	0.047309	1923.606079
6038.090453	1.588162	0.047309	3348.187012
6038.091410	1.545516	0.047309	4827.246094
6038.092322	1.503959	0.047309	6198.856445
6038.093225	1.122594	0.047309	7212.558594
6038.094160	0.125526	0.047309	7329.925293
6038.095060	0.085767	0.047309	7407.115234
6038.095987	0.085840	0.047309	7486.688965
6038.096879	0.085833	0.047309	7563.251465
6038.097827	0.085876	0.047309	7644.662109
6038.098732	0.085822	0.047309	7722.330566
6038.099650	0.085946	0.047309	7801.229004
6038.100537	0.085825	0.047309	7877.355957
6038.101505	0.085920	0.047309	7960.526855
6038.102402	0.085818	0.047309	8037.505371
6039.106504	1.097970	0.045004	479.812897
6039.107467	1.599283	0.045004	2019.922852
6039.108387	1.585364	0.045004	3478.457520
6039.109314	1.543363	0.045004	4909.155273
6039.110208	1.502388	0.045004	6252.290039
6039.111174	0.995284	0.045004	7213.734863
6039.112066	0.108182	0.045004	7310.233398
6039.112951	0.085774	0.045004	7386.143555
6039.113863	0.085909	0.045004	7464.493164
6039.114795	0.085814	0.045004	7544.472168
6039.115694	0.085840	0.045004	7621.642090
6039.116584	0.085906	0.045004	7698.098145
6039.117519	0.085862	0.045004	7778.378906
6039.118428	0.085836	0.045004	7856.403809
6039.119351	0.085865	0.045004	7935.657715
6039.120241	0.085836	0.045004	8012.051758
6040.157178	1.121620	0.046310	550.715332
6040.158113	1.603140	0.046310	2049.650879
6040.159025	1.584782	0.046310	3494.971680
6040.159921	1.543733	0.046310	4878.156250
6040.160876	1.500765	0.046310	6311.387207
6040.161792	0.989835	0.046310	7218.076172
6040.162711	0.105304	0.046310	7314.850586
6040.163598	0.085833	0.046310	7390.983887
6040.164553	0.085898	0.046310	7473.017090
6040.165462	0.085895	0.046310	7551.095215
6040.166350	0.085942	0.046310	7627.412109
6040.167281	0.086063	0.046310	7707.537109
6040.168191	0.085902	0.046310	7785.708008
6040.169115	0.085858	0.046310	7865.041016
6040.170006	0.085917	0.046310	7941.592773
6040.170957	0.085968	0.046310	8023.348145
6041.173456	1.111399	0.044662	494.572540
6041.174426	1.602583	0.044662	2049.078125
6041.175329	1.585448	0.044662	3480.737793
6041.176227	1.544952	0.044662	4868.104980
6041.177180	1.502366	0.044662	6299.859375
6041.178093	1.022915	0.044662	7233.780762
6041.179014	0.107351	0.044662	7332.650879
6041.179910	0.085796	0.044662	7409.523926
6041.180841	0.085957	0.044662	7489.549805
6041.181757	0.085895	0.044662	7568.229492
6041.182677	0.085891	0.044662	7647.249512
6041.183566	0.085906	0.044662	7723.619629
6041.184520	0.085935	0.044662	7805.601562
6041.185412	0.085964	0.044662	7882.281738
6041.186302	0.085895	0.044662	7958.728027
6041.187239	0.085924	0.044662	8039.238770
6042.225614	1.097087	0.048831	481.621368
6042.226512	1.598679	0.048831	1917.235229
6042.227449	1.587147	0.048831	3404.392090
6042.228367	1.545282	0.048831	4822.960937
6042.229304	1.503025	0.048831	6231.294922
6042.230208	1.059181	0.048831	7188.794434
6042.231161	0.110962	0.048831	7294.541016
6042.232059	0.085880	0.048831	7371.661133
6042.232950	0.085887	0.048831	7448.187012
6042.233894	0.085909	0.048831	7529.285645
6042.234796	0.085924	0.048831	7606.789062
6042.235706	0.085913	0.048831	7684.969727
6042.236601	0.085862	0.048831	7761.815918
6042.237533	0.085917	0.048831	7841.890137
6042.238436	0.085909	0.048831	7919.466309
6042.239327	0.085902	0.048831	7996.004883
6043.238352	1.100823	0.047284	487.664490
6043.239249	1.598632	0.047284	1921.636963
6043.240212	1.586426	0.047284	3449.364990
6043.241121	1.544557	0.047284	4853.367187
6043.242028	1.503446	0.047284	6216.992676
6043.242930	1.063220	0.047284	7176.017090
6043.243884	0.111262	0.047284	7282.161133
6043.244788	0.085880	0.047284	7359.796875
6043.245703	0.085942	0.047284	7438.434082
6043.246591	0.085913	0.047284	7514.725098
6043.247532	0.085869	0.047284	7595.527832
6043.248427	0.085972	0.047284	7672.472656
6043.249318	0.086023	0.047284	7749.119141
6043.250246	0.085909	0.047284	7828.843262
6043.251154	0.085935	0.047284	7906.872070
6043.252060	0.085917	0.047284	7984.712891
6044.293642	1.161779	0.049234	583.212830
6044.294558	1.602927	0.049234	2051.494141
6044.295477	1.584587	0.049234	3507.729980
6044.296381	1.543169	0.049234	4902.754883
6044.297343	1.499912	0.049234	6345.670410
6044.298258	0.977487	0.049234	7240.070801
6044.299147	0.106520	0.049234	7334.767090
6044.300064	0.085880	0.049234	7413.519043
6044.300982	0.085869	0.049234	7492.346680
6044.301880	0.085913	0.049234	7569.496582
6044.302765	0.085935	0.049234	7645.549316
6044.303697	0.085924	0.049234	7725.630371
6044.304609	0.085942	0.049234	7804.009766
6044.305529	0.085957	0.049234	7883.090332
6044.306428	0.085869	0.049234	7960.286621
6044.307386	0.085913	0.049234	8042.591309
6045.305291	1.098699	0.045262	484.526154
6045.306184	1.598745	0.045262	1912.205444
6045.307140	1.586276	0.045262	3428.685059
6045.308064	1.544099	0.045262	4855.432617
6045.308989	1.502640	0.045262	6245.375000
6045.309901	1.038538	0.045262	7192.521484
6045.310851	0.108204	0.045262	7295.315430
6045.311752	0.085822	0.045262	7372.640625
6045.312643	0.085924	0.045262	7449.199219
6045.313585	0.086005	0.045262	7530.215820
6045.314507	0.085906	0.045262	7609.420898
6045.315420	0.085972	0.045262	7687.913086
6045.316307	0.085906	0.045262	7764.111328
6045.317243	0.085902	0.045262	7844.515625
6045.318159	0.085865	0.045262	7923.168457
6045.319051	0.085917	0.045262	7999.806152
6046.361052	1.104972	0.050555	496.132385
6046.361950	1.599408	0.050555	1932.400635
6046.362841	1.588063	0.050555	3347.364502
6046.363793	1.545560	0.050555	4818.737793
6046.364705	1.503922	0.050555	6190.314453
6046.365607	1.128025	0.050555	7207.792969
6046.366529	0.128848	0.050555	7326.590332
6046.367455	0.085781	0.050555	7406.023926
6046.368364	0.085876	0.050555	7484.085449
6046.369255	0.085858	0.050555	7560.584961
6046.370199	0.085829	0.050555	7641.607422
6046.371111	0.085840	0.050555	7719.893555
6046.372036	0.085928	0.050555	7799.376953
6046.372922	0.085811	0.050555	7875.405273
6046.373862	0.085847	0.050555	7956.101562
6046.374769	0.085891	0.050555	8034.004883
6047.373305	1.131310	0.045806	549.816589
6047.374216	1.601902	0.045806	2009.149170
6047.375134	1.585148	0.045806	3464.314941
6047.376045	1.544106	0.045806	4870.996094
6047.376985	1.501370	0.045806	6282.283691
6047.377913	1.012687	0.045806	7222.057129
6047.378810	0.108691	0.045806	7319.553223
6047.379727	0.085909	0.045806	7398.332031
6047.380662	0.085920	0.045806	7478.667480
6047.381557	0.086023	0.045806	7555.658203
6047.382449	0.085924	0.045806	7632.302246
6047.383381	0.085990	0.045806	7712.444824
6047.384286	0.085902	0.045806	7790.186035
6047.385202	0.085950	0.045806	7868.916016
6047.386099	0.085972	0.045806	7946.032715
6047.387053	0.085986	0.045806	8028.063477
6048.427994	1.105415	0.051063	498.542206
6048.428888	1.599536	0.051063	1928.527588
6048.429785	1.587942	0.051063	3352.911621
6048.430735	1.545593	0.051063	4821.225098
6048.431671	1.503322	0.051063	6228.333984
6048.432578	1.089536	0.051063	7216.543457
6048.433508	0.120410	0.051063	7328.524902
6048.434425	0.085778	0.051063	7407.183105
6048.435343	0.086045	0.051063	7486.172363
6048.436233	0.085924	0.051063	7562.645020
6048.437180	0.085884	0.051063	7643.977051
6048.438096	0.085858	0.051063	7722.623047
6048.439007	0.085961	0.051063	7800.933105
6048.439905	0.085891	0.051063	7878.063477
6048.440841	0.085924	0.051063	7958.488281
6048.441767	0.085836	0.051063	8037.972656
6049.441266	1.122817	0.044722	528.846985
6049.442180	1.601462	0.044722	1992.583496
6049.443082	1.586162	0.044722	3423.301758
6049.444041	1.543077	0.044722	4903.112793
6049.444964	1.501359	0.044722	6288.866699
6049.445869	1.034418	0.044722	7225.014648
6049.446798	0.112493	0.044722	7329.520508
6049.447721	0.085865	0.044722	7408.774414
6049.448638	0.085876	0.044722	7487.522949
6049.449528	0.085946	0.044722	7564.015137
6049.450460	0.085818	0.044722	7643.997559
6049.451375	0.085942	0.044722	7722.634766
6049.452295	0.085913	0.044722	7801.674805
6049.453193	0.085913	0.044722	7878.824707
6049.454150	0.085869	0.044722	7961.001465
6049.455072	0.085906	0.044722	8040.206543
6050.492874	1.105067	0.049895	486.229553
6050.493828	1.601737	0.049895	2014.286865
6050.494773	1.584499	0.049895	3511.638916
6050.495678	1.543242	0.049895	4908.272949
6050.496606	1.501549	0.049895	6301.710449
6050.497557	0.955942	0.049895	7210.811523
6050.498483	0.101591	0.049895	7304.884277
6050.499371	0.085898	0.049895	7381.162109
6050.500317	0.085935	0.049895	7462.456543
6050.501218	0.085851	0.049895	7539.808105
6050.502138	0.085858	0.049895	7618.797852
6050.503028	0.085891	0.049895	7695.240723
6050.503961	0.085822	0.049895	7775.312012
6050.504885	0.085873	0.049895	7854.658691
6050.505776	0.085803	0.049895	7931.109375
6050.506712	0.085818	0.049895	8011.435059
6051.510273	1.164792	0.044453	562.594727
6051.511189	1.602107	0.044453	2030.124634
6051.512114	1.585023	0.044453	3496.270996
6051.513014	1.543187	0.044453	4885.139648
6051.513975	1.500260	0.044453	6326.889648
6051.514909	0.972122	0.044453	7234.851074
6051.515798	0.106168	0.044453	7329.234375
6051.516742	0.085833	0.044453	7410.260254
6051.517663	0.085935	0.044453	7489.406250
6051.518586	0.085924	0.044453	7568.714355
6051.519473	0.085917	0.044453	7644.922363
6051.520410	0.085983	0.044453	7725.488281
6051.521329	0.085942	0.044453	7804.469238
6051.522230	0.085898	0.044453	7881.863770
6051.523143	0.085928	0.044453	7960.315918
6051.524082	0.085869	0.044453	8040.947266
6052.558309	1.111381	0.047679	513.457825
6052.559215	1.600173	0.047679	1963.214844
6052.560158	1.586312	0.047679	3459.107422
6052.561094	1.543136	0.047679	4903.482422
6052.562011	1.501384	0.047679	6280.251953
6052.562919	1.039054	0.047679	7223.712891
6052.563854	0.108849	0.047679	7325.486816
6052.564776	0.085869	0.047679	7404.658203
6052.565697	0.085909	0.047679	7483.780762
6052.566584	0.085862	0.047679	7559.940430
6052.567529	0.085913	0.047679	7641.128418
6052.568462	0.085895	0.047679	7721.268066
6052.569355	0.085876	0.047679	7797.955566
6052.570282	0.085825	0.047679	7877.515625
6052.571221	0.085865	0.047679	7958.143066
6052.572129	0.085939	0.047679	8036.175293
6053.580272	1.128435	0.044577	538.263489
6053.581211	1.602330	0.044577	2042.851562
6053.582141	1.584617	0.044577	3516.544922
6053.583037	1.543506	0.044577	4899.526367
6053.583988	1.500513	0.044577	6326.513672
6053.584937	0.958022	0.044577	7235.676758
6053.585839	0.103550	0.044577	7329.078613
6053.586765	0.085836	0.044577	7408.562988
6053.587707	0.085935	0.044577	7489.513672
6053.588622	0.085884	0.044577	7568.097168
6053.589509	0.085833	0.044577	7644.230469
6053.590463	0.085887	0.044577	7726.166992
6053.591399	0.085858	0.044577	7806.530273
6053.592312	0.085964	0.044577	7885.015625
6053.593206	0.085844	0.044577	7961.759766
6053.594149	0.085891	0.044577	8042.754883
6054.623738	1.118434	0.046535	534.611389
6054.624678	1.602993	0.046535	2041.425049
6054.625589	1.584712	0.046535	3485.097656
6054.626510	1.543389	0.046535	4906.558594
6054.627446	1.500242	0.046535	6310.784668
6054.628394	0.950695	0.046535	7212.042969
6054.629285	0.104044	0.046535	7304.746582
6054.630217	0.085854	0.046535	7384.763184
6054.631145	0.085854	0.046535	7464.436035
6054.632058	0.085909	0.046535	7542.871094
6054.632954	0.085891	0.046535	7619.829590
6054.633902	0.085891	0.046535	7701.254395
6054.634842	0.085891	0.046535	7781.992187
6054.635757	0.085865	0.046535	7860.559082
6054.636648	0.085865	0.046535	7937.065430
6054.637595	0.085884	0.046535	8018.397461
6055.650290	1.160171	0.044819	555.721863
6055.651249	1.603257	0.044819	2093.245117
6055.652172	1.583529	0.044819	3554.842529
6055.653068	1.542198	0.044819	4936.652344
6055.654019	1.499421	0.044819	6362.602051
6055.654973	0.915513	0.044819	7236.000977
6055.655864	0.101100	0.044819	7326.081055
6055.656796	0.085844	0.044819	7406.087402
6055.657736	0.085939	0.044819	7486.869629
6055.658644	0.085942	0.044819	7564.905273
6055.659542	0.085858	0.044819	7642.005859
6055.660480	0.085895	0.044819	7722.575195
6055.661410	0.085909	0.044819	7802.471191
6055.662311	0.085917	0.044819	7879.882324
6055.663228	0.085964	0.044819	7958.711426
6055.664167	0.085939	0.044819	8039.407715
6056.689648	1.117203	0.046048	530.671570
6056.690591	1.602056	0.046048	2041.410156
6056.691525	1.584236	0.046048	3521.086426
6056.692419	1.543271	0.046048	4900.770996
6056.693377	1.500388	0.046048	6338.142578
6056.694322	0.941598	0.046048	7227.952637
6056.695211	0.101968	0.046048	7318.602051
6056.696140	0.085880	0.046048	7398.384766
6056.697066	0.085931	0.046048	7477.957031
6056.697998	0.085840	0.046048	7557.959961
6056.698897	0.085913	0.046048	7635.195801
6056.699813	0.085884	0.046048	7713.865234
6056.700745	0.085957	0.046048	7793.977051
6056.701671	0.085906	0.046048	7873.525879
6056.702573	0.085939	0.046048	7951.042480
6056.703504	0.085880	0.046048	8030.997070
6057.718727	1.094150	0.045198	473.767120
6057.719663	1.598965	0.045198	1970.398193
6057.720613	1.585272	0.045198	3476.406738
6057.721544	1.542883	0.045198	4912.831055
6057.722446	1.501663	0.045198	6267.330566
6057.723410	0.978267	0.045198	7210.379395
6057.724357	0.101968	0.045198	7306.942871
6057.725253	0.085887	0.045198	7383.897949
6057.726171	0.085902	0.045198	7462.755859
6057.727120	0.085924	0.045198	7544.297852
6057.728039	0.085895	0.045198	7623.235352
6057.728933	0.085873	0.045198	7700.005859
6057.729868	0.085939	0.045198	7780.358398
6057.730789	0.085964	0.045198	7859.531738
6057.731698	0.085957	0.045198	7937.666504
6057.732586	0.085957	0.045198	8013.996582
6058.756077	1.115629	0.045617	526.576782
6058.757024	1.602616	0.045617	2044.254028
6058.757967	1.583529	0.045617	3537.521973
6058.758866	1.542338	0.045617	4924.083496
6058.759798	1.499927	0.045617	6322.015137
6058.760755	0.928846	0.045617	7210.920898
6058.761674	0.099730	0.045617	7302.572754
6058.762563	0.085814	0.045617	7378.861816
6058.763509	0.085935	0.045617	7460.156250
6058.764437	0.085851	0.045617	7539.825684
6058.765327	0.085957	0.045617	7616.327637
6058.766239	0.085909	0.045617	7694.677246
6058.767176	0.085939	0.045617	7775.201660
6058.768096	0.085957	0.045617	7854.282227
6058.768988	0.085876	0.045617	7930.883789
6058.769934	0.085884	0.045617	8012.129883
6059.788752	1.114288	0.044803	495.858307
6059.789713	1.602151	0.044803	2035.525146
6059.790648	1.584283	0.044803	3516.830078
6059.791549	1.543169	0.044803	4907.225098
6059.792493	1.501183	0.044803	6324.341797
6059.793411	0.993882	0.044803	7236.725586
6059.794326	0.104751	0.044803	7332.572754
6059.795223	0.085833	0.044803	7409.564453
6059.796176	0.085865	0.044803	7491.394043
6059.797111	0.085822	0.044803	7571.637207
6059.798039	0.085891	0.044803	7651.344238
6059.798932	0.085840	0.044803	7727.999023
6059.799890	0.085767	0.044803	7810.163574
6059.800796	0.085880	0.044803	7887.971191
6059.801695	0.085917	0.044803	7965.210449
6059.802625	0.085851	0.044803	8045.051758
6060.821450	1.096388	0.044275	480.217896
6060.822422	1.599218	0.044275	2034.657349
6060.823326	1.585455	0.044275	3467.908936
6060.824245	1.543740	0.044275	4886.606445
6060.825152	1.502432	0.044275	6249.312012
6060.826112	0.993871	0.044275	7203.427734
6060.827037	0.104579	0.044275	7300.163086
6060.827933	0.085858	0.044275	7377.091797
6060.828832	0.085844	0.044275	7454.265137
6060.829771	0.085909	0.044275	7534.934082
6060.830693	0.085858	0.044275	7614.095215
6060.831584	0.085942	0.044275	7690.669922
6060.832534	0.085913	0.044275	7772.287109
6060.833445	0.085811	0.044275	7850.460449
6060.834357	0.085917	0.044275	7928.816406
6060.835249	0.085862	0.044275	8005.405273
6061.857738	1.100698	0.043607	482.105835
6061.858638	1.598386	0.043607	1920.653442
6061.859610	1.585199	0.043607	3461.466797
6061.860548	1.543154	0.043607	4908.945312
6061.861443	1.502293	0.043607	6253.497070
6061.862396	1.010643	0.043607	7216.640137
6061.863313	0.107256	0.043607	7314.993652
6061.864227	0.085796	0.043607	7393.411133
6061.865118	0.085814	0.043607	7469.871582
6061.866065	0.085880	0.043607	7551.200195
6061.866986	0.085869	0.043607	7630.285645
6061.867872	0.085887	0.043607	7706.381836
6061.868785	0.085811	0.043607	7784.727051
6061.869707	0.085931	0.043607	7863.955566
6061.870625	0.085851	0.043607	7942.766602
6061.871517	0.085833	0.043607	8019.329102
6062.888397	1.110992	0.045182	491.058655
6062.889356	1.601873	0.045182	2027.254395
6062.890288	1.584976	0.045182	3504.451660
6062.891190	1.543638	0.045182	4896.812988
6062.892130	1.501677	0.045182	6308.389648
6062.893050	1.008263	0.045182	7235.991699
6062.893966	0.106025	0.045182	7333.110840
6062.894864	0.085836	0.045182	7410.191895
6062.895807	0.085829	0.045182	7491.128418
6062.896734	0.085909	0.045182	7570.766602
6062.897657	0.085917	0.045182	7650.067871
6062.898541	0.085880	0.045182	7725.985840
6062.899493	0.085814	0.045182	7807.681152
6062.900401	0.085873	0.045182	7885.653809
6062.901300	0.085884	0.045182	7962.863281
6062.902231	0.085906	0.045182	8042.841309
6063.925249	1.165723	0.046253	568.872620
6063.926155	1.601598	0.046253	2019.920410
6063.927090	1.584792	0.046253	3501.701416
6063.927986	1.544081	0.046253	4885.197754
6063.928937	1.500802	0.046253	6312.460449
6063.929858	0.988480	0.046253	7222.850586
6063.930782	0.104073	0.046253	7319.014648
6063.931679	0.085862	0.046253	7396.032715
6063.932629	0.085876	0.046253	7477.615234
6063.933551	0.085880	0.046253	7556.796875
6063.934447	0.085869	0.046253	7633.735840
6063.935382	0.085869	0.046253	7714.023437
6063.936298	0.085833	0.046253	7792.645996
6063.937220	0.085913	0.046253	7871.857910
6063.938113	0.085902	0.046253	7948.568359
6063.939068	0.085862	0.046253	8030.566406
6064.955392	1.152755	0.045677	566.002747
6064.956308	1.602162	0.045677	2033.583008
6064.957224	1.584968	0.045677	3485.414062
6064.958129	1.543634	0.045677	4882.402832
6064.959095	1.500135	0.045677	6331.533691
6064.960027	0.967138	0.045677	7232.905762
6064.960926	0.104169	0.045677	7326.553223
6064.961894	0.085829	0.045677	7409.635742
6064.962804	0.085873	0.045677	7487.779785
6064.963721	0.085865	0.045677	7566.518555
6064.964615	0.085880	0.045677	7643.295410
6064.965570	0.085836	0.045677	7725.269043
6064.966466	0.085931	0.045677	7802.263672
6064.967380	0.085935	0.045677	7880.808105
6064.968274	0.085818	0.045677	7957.529297
6064.969220	0.085880	0.045677	8038.771973
6065.993201	1.149236	0.045588	540.140869
6065.994097	1.600730	0.045588	1974.394897
6065.995048	1.585554	0.045588	3482.256836
6065.995953	1.543528	0.045588	4879.149414
6065.996887	1.501666	0.045588	6281.705566
6065.997795	1.017587	0.045588	7205.674316
6065.998748	0.105146	0.045588	7305.878906
6065.999648	0.085858	0.045588	7383.151367
6066.000567	0.085961	0.045588	7462.149414
6066.001454	0.085920	0.045588	7538.360840
6066.002405	0.085851	0.045588	7620.004883
6066.003327	0.085876	0.045588	7699.183105
6066.004215	0.085825	0.045588	7775.395996
6066.005171	0.085836	0.045588	7857.455566
6066.006063	0.085884	0.045588	7934.063965
6066.006977	0.085862	0.045588	8012.541504
6067.022294	1.106594	0.046539	494.647614
6067.023197	1.599437	0.046539	1938.939453
6067.024095	1.588055	0.046539	3365.013184
6067.025054	1.545146	0.046539	4846.808594
6067.025962	1.503944	0.046539	6212.389648
6067.026867	1.112552	0.046539	7219.249512
6067.027787	0.126182	0.046539	7335.336426
6067.028703	0.085807	0.046539	7413.935547
6067.029598	0.085906	0.046539	7490.821289
6067.030489	0.085939	0.046539	7567.392578
6067.031424	0.085869	0.046539	7647.680176
6067.032334	0.085909	0.046539	7725.857910
6067.033252	0.085939	0.046539	7804.749512
6067.034140	0.085891	0.046539	7881.020996
6067.035097	0.085847	0.046539	7963.176758
6067.035992	0.085906	0.046539	8040.062500
6068.061200	1.139000	0.046036	579.751099
6068.062101	1.602319	0.046036	2023.440796
6068.063031	1.584137	0.046036	3496.687988
6068.063934	1.543037	0.046036	4890.050781
6068.064874	1.500542	0.046036	6300.560059
6068.065798	0.969521	0.046036	7196.397949
6068.066726	0.102458	0.046036	7291.479492
6068.067618	0.085862	0.046036	7368.068359
6068.068584	0.085833	0.046036	7450.982422
6068.069482	0.085909	0.046036	7528.128906
6068.070374	0.085811	0.046036	7604.671875
6068.071322	0.085891	0.046036	7686.096680
6068.072224	0.085884	0.046036	7763.563965
6068.073139	0.085928	0.046036	7842.187988
6068.074032	0.085844	0.046036	7918.846191
6068.074977	0.085902	0.046036	8000.023437
6069.089259	1.115468	0.046326	522.038818
6069.090168	1.601173	0.046326	1977.505249
6069.091107	1.586243	0.046326	3466.987305
6069.092026	1.543612	0.046326	4885.566895
6069.092950	1.501750	0.046326	6273.184570
6069.093853	1.045942	0.046326	7217.670410
6069.094826	0.103729	0.046326	7318.599121
6069.095729	0.085840	0.046326	7396.112305
6069.096623	0.085939	0.046326	7472.941406
6069.097535	0.085858	0.046326	7551.244141
6069.098470	0.085865	0.046326	7631.528320
6069.099373	0.085928	0.046326	7709.121094
6069.100263	0.085906	0.046326	7785.577148
6069.101184	0.085928	0.046326	7864.716797
6069.102095	0.085880	0.046326	7942.953613
6069.103013	0.085858	0.046326	8021.771484
6070.128091	1.118712	0.047168	501.183014
6070.128993	1.599133	0.047168	1943.601318
6070.129889	1.588173	0.047168	3366.604004
6070.130824	1.546479	0.047168	4812.562500
6070.131752	1.503867	0.047168	6208.151367
6070.132672	1.093480	0.047168	7214.153320
6070.133560	0.123175	0.047168	7323.532715
6070.134520	0.085767	0.047168	7405.868652
6070.135426	0.085898	0.047168	7483.692871
6070.136342	0.085906	0.047168	7562.382324
6070.137232	0.085957	0.047168	7638.884277
6070.138173	0.085876	0.047168	7719.693848
6070.139079	0.085884	0.047168	7797.504395
6070.139990	0.085898	0.047168	7875.757812
6070.140880	0.085902	0.047168	7952.210449
6070.141828	0.085876	0.047168	8033.621094
6071.157196	1.112703	0.046656	488.476440
6071.158170	1.602495	0.046656	2049.306641
6071.159079	1.584774	0.046656	3489.866211
6071.159978	1.544425	0.046656	4878.304199
6071.160921	1.502003	0.046656	6294.693359
6071.161849	1.013566	0.046656	7235.282227
6071.162778	0.106249	0.046656	7333.987305
6071.163663	0.085785	0.046656	7409.906738
6071.164605	0.085898	0.046656	7490.823242
6071.165509	0.085818	0.046656	7568.402832
6071.166401	0.085858	0.046656	7644.988281
6071.167303	0.085891	0.046656	7722.461914
6071.168244	0.085833	0.046656	7803.230469
6071.169141	0.085792	0.046656	7880.186035
6071.170035	0.085836	0.046656	7956.923340
6071.170979	0.085942	0.046656	8038.052734
6072.194543	1.133591	0.047498	527.119934
6072.195454	1.600367	0.047498	1985.054687
6072.196350	1.587103	0.047498	3407.099121
6072.197284	1.545238	0.047498	4850.351562
6072.198209	1.502794	0.047498	6240.436035
6072.199120	1.069266	0.047498	7214.537598
6072.200013	0.118099	0.047498	7320.000488
6072.200948	0.085829	0.047498	7400.250488
6072.201861	0.085840	0.047498	7478.622070
6072.202782	0.085924	0.047498	7557.758301
6072.203669	0.085950	0.047498	7633.995605
6072.204620	0.085917	0.047498	7715.702637
6072.205513	0.085836	0.047498	7792.354492
6072.206407	0.085862	0.047498	7869.114746
6072.207346	0.085858	0.047498	7949.735352
6072.208262	0.085822	0.047498	8028.347656
6073.225687	1.125099	0.046084	508.544708
6073.226590	1.600045	0.046084	1953.385498
6073.227546	1.585415	0.046084	3469.042236
6073.228470	1.543403	0.046084	4895.146973
6073.229394	1.501791	0.046084	6282.801758
6073.230294	1.041226	0.046084	7219.904785
6073.231250	0.106501	0.046084	7321.720215
6073.232147	0.085708	0.046084	7398.600098
6073.233036	0.085844	0.046084	7474.915039
6073.233976	0.085902	0.046084	7555.663086
6073.234886	0.085847	0.046084	7633.784180
6073.235807	0.085847	0.046084	7712.849609
6073.236708	0.085924	0.046084	7790.267090
6073.237633	0.085928	0.046084	7869.750000
6073.238555	0.085822	0.046084	7948.877441
6073.239471	0.085792	0.046084	8027.462891
6074.261472	1.108656	0.045786	501.112549
6074.262372	1.599573	0.045786	1940.728027
6074.263266	1.587946	0.045786	3360.351318
6074.264208	1.545319	0.045786	4816.041504
6074.265131	1.503428	0.045786	6203.705078
6074.266062	1.076726	0.045786	7206.137207
6074.266952	0.119447	0.045786	7312.444824
6074.267905	0.085865	0.045786	7394.274414
6074.268808	0.085902	0.045786	7471.844238
6074.269700	0.085880	0.045786	7548.449219
6074.270649	0.085895	0.045786	7629.963379
6074.271552	0.085880	0.045786	7707.513184
6074.272480	0.085858	0.045786	7787.189453
6074.273369	0.085847	0.045786	7863.507812
6074.274302	0.085909	0.045786	7943.661133
6074.275217	0.085862	0.045786	8022.224609
6075.293659	1.111663	0.047498	490.243225
6075.294578	1.600250	0.047498	1960.873291
6075.295479	1.587645	0.047498	3391.341797
6075.296373	1.546219	0.047498	4773.662109
6075.297343	1.503223	0.047498	6231.788086
6075.298254	1.085999	0.047498	7221.132812
6075.299142	0.121754	0.047498	7329.250488
6075.300086	0.085814	0.047498	7410.259277
6075.300986	0.085968	0.047498	7487.630371
6075.301880	0.085942	0.047498	7564.462891
6075.302768	0.085953	0.047498	7640.789551
6075.303708	0.085924	0.047498	7721.558105
6075.304618	0.085825	0.047498	7799.659180
6075.305517	0.085939	0.047498	7876.917969
6075.306406	0.085942	0.047498	7953.320801
6075.307360	0.085972	0.047498	8035.337891
6076.328404	1.106678	0.045625	493.578613
6076.329295	1.598456	0.045625	1917.802734
6076.330252	1.586118	0.045625	3435.717773
6076.331177	1.544066	0.045625	4863.979004
6076.332083	1.503237	0.045625	6225.912109
6076.332990	1.049238	0.045625	7177.571289
6076.333942	0.109636	0.045625	7281.944824
6076.334845	0.085781	0.045625	7359.405273
6076.335738	0.085902	0.045625	7436.115723
6076.336682	0.085913	0.045625	7517.217773
6076.337589	0.085957	0.045625	7595.180664
6076.338485	0.085887	0.045625	7672.135742
6076.339371	0.085942	0.045625	7748.280762
6076.340295	0.085979	0.045625	7827.725586
6076.341204	0.085829	0.045625	7905.744141
6076.342110	0.085884	0.045625	7983.554687
6077.363192	1.133924	0.047131	552.221252
6077.364108	1.601213	0.047131	2018.932617
6077.365009	1.586104	0.047131	3448.011963
6077.365904	1.544967	0.047131	4830.757324
6077.366841	1.502519	0.047131	6238.618164
6077.367765	1.051417	0.047131	7210.127930
6077.368668	0.114265	0.047131	7313.309570
6077.369567	0.085796	0.047131	7390.439941
6077.370516	0.085873	0.047131	7471.933105
6077.371426	0.085924	0.047131	7550.124023
6077.372321	0.085891	0.047131	7626.996582
6077.373260	0.085880	0.047131	7707.638184
6077.374171	0.085939	0.047131	7785.928223
6077.375071	0.085858	0.047131	7863.200684
6077.375956	0.085961	0.047131	7939.275879
6077.376891	0.085928	0.047131	8019.618164
6078.393301	1.114849	0.046962	493.877930
6078.394222	1.600140	0.046962	1967.607178
6078.395127	1.587136	0.046962	3403.965332
6078.396065	1.545220	0.046962	4853.381348
6078.396978	1.503168	0.046962	6225.773437
6078.397899	1.082845	0.046962	7223.074219
6078.398785	0.121553	0.046962	7330.770020
6078.399731	0.085983	0.046962	7412.109375
6078.400636	0.085913	0.046962	7489.860840
6078.401533	0.085895	0.046962	7566.908691
6078.402451	0.085957	0.046962	7645.817383
6078.403358	0.086001	0.046962	7723.820312
6078.404270	0.085884	0.046962	7802.146484
6078.405164	0.085880	0.046962	7878.923340
6078.406095	0.085964	0.046962	7958.956055
6078.407000	0.085884	0.046962	8036.680664
6079.432695	1.156044	0.048316	558.369080
6079.433616	1.602125	0.048316	2033.926514
6079.434525	1.585393	0.048316	3475.048828
6079.435422	1.544238	0.048316	4860.230469
6079.436376	1.501608	0.048316	6292.764160
6079.437298	1.025398	0.048316	7238.181152
6079.438193	0.111427	0.048316	7337.908203
6079.439140	0.085814	0.048316	7419.174316
6079.440034	0.085880	0.048316	7495.951172
6079.440940	0.085854	0.048316	7573.735352
6079.441827	0.085869	0.048316	7649.901367
6079.442764	0.085898	0.048316	7730.388184
6079.443675	0.085869	0.048316	7808.614746
6079.444581	0.085873	0.048316	7886.415527
6079.445470	0.085836	0.048316	7962.724121
6079.446398	0.085917	0.048316	8042.455078
6080.459738	1.113966	0.046571	494.600952
6080.460666	1.600001	0.046571	1979.402100
6080.461560	1.587206	0.046571	3398.364014
6080.462507	1.545245	0.046571	4861.711426
6080.463413	1.503362	0.046571	6223.757324
6080.464322	1.097080	0.046571	7221.002930
6080.465212	0.123582	0.046571	7330.990723
6080.466162	0.085851	0.046571	7412.548828
6080.467069	0.085844	0.046571	7490.408691
6080.467966	0.085979	0.046571	7567.531738
6080.468877	0.085902	0.046571	7645.788574
6080.469800	0.085939	0.046571	7725.109863
6080.470709	0.085858	0.046571	7803.154785
6080.471598	0.085865	0.046571	7879.489258
6080.472523	0.085891	0.046571	7958.938477
6080.473427	0.085920	0.046571	8036.610352
6081.501136	1.103430	0.050169	487.716125
6081.502031	1.598489	0.050169	1918.363525
6081.502973	1.587052	0.050169	3413.366455
6081.503895	1.545363	0.050169	4838.190918
6081.504801	1.503721	0.050169	6200.562012
6081.505745	1.072764	0.050169	7213.250977
6081.506648	0.116027	0.050169	7318.022949
6081.507551	0.085891	0.050169	7395.582520
6081.508437	0.085928	0.050169	7471.714355
6081.509382	0.086005	0.050169	7552.988770
6081.510291	0.085935	0.050169	7631.103516
6081.511185	0.085829	0.050169	7707.834473
6081.512095	0.085854	0.050169	7785.961914
6081.513014	0.085968	0.050169	7864.966309
6081.513926	0.085891	0.050169	7943.298828
6081.514819	0.085917	0.050169	8020.022461
6082.524114	1.105928	0.047252	492.137878
6082.525011	1.598503	0.047252	1925.995361
6082.525982	1.585730	0.047252	3465.739258
6082.526894	1.544326	0.047252	4874.164551
6082.527792	1.503505	0.047252	6224.311523
6082.528730	1.061591	0.047252	7220.083496
6082.529634	0.116316	0.047252	7325.232910
6082.530534	0.085825	0.047252	7402.475586
6082.531434	0.085891	0.047252	7479.777344
6082.532365	0.086034	0.047252	7559.875000
6082.533268	0.085909	0.047252	7637.451172
6082.534173	0.085946	0.047252	7715.232422
6082.535063	0.085986	0.047252	7791.760254
6082.536002	0.086060	0.047252	7872.570312
6082.536911	0.085844	0.047252	7950.602051
6082.537803	0.085898	0.047252	8027.223633
6083.571143	1.096450	0.051168	475.859406
6083.572090	1.598617	0.051168	1989.749634
6083.573020	1.585583	0.051168	3464.342285
6083.573926	1.544220	0.051168	4863.405273
6083.574824	1.503439	0.051168	6213.493164
6083.575789	1.035564	0.051168	7212.812500
6083.576688	0.111284	0.051168	7312.856934
6083.577594	0.085789	0.051168	7390.581543
6083.578486	0.085865	0.051168	7467.173340
6083.579429	0.085946	0.051168	7548.220703
6083.580337	0.085869	0.051168	7626.189941
6083.581224	0.085880	0.051168	7702.365723
6083.582155	0.086008	0.051168	7782.439453
6083.583060	0.085942	0.051168	7860.217285
6083.583965	0.085873	0.051168	7937.932129
6083.584854	0.085847	0.051168	8014.250488
6084.588545	1.128732	0.048706	556.464661
6084.589470	1.602810	0.048706	2039.063965
6084.590379	1.584906	0.048706	3479.743652
6084.591277	1.544158	0.048706	4866.397461
6084.592215	1.501772	0.048706	6275.060059
6084.593135	1.031089	0.048706	7223.661621
6084.594033	0.111606	0.048706	7323.884277
6084.594918	0.085800	0.048706	7399.816895
6084.595869	0.085898	0.048706	7481.506348
6084.596772	0.085946	0.048706	7559.115723
6084.597662	0.085891	0.048706	7635.558594
6084.598590	0.085920	0.048706	7715.292969
6084.599492	0.086067	0.048706	7792.925293
6084.600391	0.085931	0.048706	7870.177734
6084.601280	0.085942	0.048706	7946.580566
6084.602217	0.085942	0.048706	8027.108398
6085.640151	1.117108	0.051426	500.464478
6085.641048	1.599419	0.051426	1935.143188
6085.641982	1.587264	0.051426	3417.648193
6085.642901	1.545264	0.051426	4837.745605
6085.643810	1.504105	0.051426	6204.977539
6085.644711	1.113798	0.051426	7208.509277
6085.645672	0.114177	0.051426	7318.233398
6085.646581	0.085847	0.051426	7396.268555
6085.647475	0.085913	0.051426	7473.074707
6085.648397	0.086008	0.051426	7552.374512
6085.649299	0.085964	0.051426	7629.914551
6085.650206	0.085931	0.051426	7707.854492
6085.651105	0.085917	0.051426	7785.093750
6085.652037	0.086005	0.051426	7865.250000
6085.652935	0.085990	0.051426	7942.469238
6085.653840	0.085840	0.051426	8020.154297
6086.654962	1.118313	0.046132	526.725403
6086.655898	1.601492	0.046132	2025.721680
6086.656793	1.585975	0.046132	3445.169434
6086.657723	1.544322	0.046132	4881.389648
6086.658657	1.501410	0.046132	6283.706543
6086.659586	1.003524	0.046132	7215.980469
6086.660482	0.108842	0.046132	7313.502441
6086.661413	0.085800	0.046132	7393.381836
6086.662353	0.085833	0.046132	7474.064453
6086.663275	0.085906	0.046132	7553.269531
6086.664163	0.085825	0.046132	7629.482422
6086.665110	0.085924	0.046132	7710.852539
6086.666040	0.085873	0.046132	7790.714355
6086.666933	0.085898	0.046132	7867.421875
6086.667853	0.085891	0.046132	7946.441895
6086.668785	0.085898	0.046132	8026.499023
6087.708654	1.125344	0.052437	521.034424
6087.709568	1.600210	0.052437	1983.626343
6087.710463	1.587158	0.052437	3404.132812
6087.711423	1.544312	0.052437	4886.671875
6087.712327	1.502358	0.052437	6244.803711
6087.713255	1.046957	0.052437	7216.379395
6087.714149	0.114375	0.052437	7318.630859
6087.715075	0.085814	0.052437	7398.094727
6087.715980	0.085891	0.052437	7475.826172
6087.716883	0.085935	0.052437	7553.425293
6087.717771	0.085844	0.052437	7629.654297
6087.718718	0.085931	0.052437	7711.031250
6087.719624	0.085869	0.052437	7788.828613
6087.720520	0.085869	0.052437	7865.767578
6087.721424	0.085895	0.052437	7943.416504
6087.722352	0.085840	0.052437	8023.075684
6088.721391	1.136217	0.045987	536.294434
6088.722295	1.600572	0.045987	1983.211914
6088.723230	1.585485	0.045987	3465.640137
6088.724122	1.544777	0.045987	4843.581055
6088.725075	1.501743	0.045987	6274.742187
6088.726021	1.003411	0.045987	7223.968750
6088.726912	0.109460	0.045987	7321.498047
6088.727849	0.085887	0.045987	7401.974609
6088.728746	0.085979	0.045987	7479.097656
6088.729652	0.085847	0.045987	7556.875000
6088.730550	0.085880	0.045987	7633.995117
6088.731476	0.085833	0.045987	7713.476074
6088.732387	0.085939	0.045987	7791.766113
6088.733302	0.085822	0.045987	7870.292969
6088.734197	0.085884	0.045987	7947.159180
6088.735130	0.085939	0.045987	8027.339844
6089.776596	1.097131	0.052457	486.029205
6089.777490	1.598423	0.052457	1915.019287
6089.778447	1.586807	0.052457	3433.593262
6089.779352	1.544696	0.052457	4831.542969
6089.780265	1.503662	0.052457	6204.386719
6089.781170	1.083570	0.052457	7185.018066
6089.782114	0.114496	0.052457	7293.102051
6089.783021	0.085759	0.052457	7370.885742
6089.783921	0.085836	0.052457	7448.138184
6089.784848	0.085913	0.052457	7527.779785
6089.785754	0.085844	0.052457	7605.554199
6089.786650	0.085880	0.052457	7682.502930
6089.787541	0.085891	0.052457	7759.031738
6089.788478	0.085983	0.052457	7839.597656
6089.789377	0.085785	0.052457	7916.718262
6089.790282	0.085884	0.052457	7994.442871
6090.788350	1.166103	0.044698	566.726318
6090.789270	1.602301	0.044698	2040.843262
6090.790186	1.585115	0.044698	3492.808350
6090.791081	1.543645	0.044698	4874.370605
6090.792036	1.501208	0.044698	6308.024414
6090.792961	1.000961	0.044698	7233.913086
6090.793851	0.109369	0.044698	7331.251465
6090.794784	0.085811	0.044698	7411.312500
6090.795686	0.085880	0.044698	7488.776367
6090.796587	0.085862	0.044698	7566.137695
6090.797475	0.085876	0.044698	7642.395996
6090.798419	0.085968	0.044698	7723.549805
6090.799317	0.085909	0.044698	7800.696289
6090.800226	0.085847	0.044698	7878.731445
6090.801132	0.085836	0.044698	7956.499023
6090.802053	0.085906	0.044698	8035.618164
6091.844041	1.102390	0.051325	483.949280
6091.845020	1.602803	0.051325	2053.093262
6091.845938	1.584470	0.051325	3507.636719
6091.846846	1.542986	0.051325	4908.667969
6091.847774	1.501483	0.051325	6302.044434
6091.848701	1.004996	0.051325	7233.675781
6091.849606	0.108003	0.051325	7331.418457
6091.850498	0.085792	0.051325	7407.945312
6091.851415	0.086008	0.051325	7486.814941
6091.852318	0.085931	0.051325	7564.411133
6091.853217	0.085895	0.051325	7641.630371
6091.854108	0.085811	0.051325	7718.087402
6091.855061	0.085972	0.051325	7800.018555
6091.855971	0.085862	0.051325	7878.152832
6091.856866	0.085972	0.051325	7955.097656
6091.857795	0.085939	0.051325	8034.934570
6092.856277	1.105551	0.044976	487.547791
6092.857172	1.598514	0.044976	1918.218262
6092.858147	1.585631	0.044976	3464.208496
6092.859054	1.544440	0.044976	4865.015137
6092.859957	1.503193	0.044976	6222.398926
6092.860859	1.060192	0.044976	7178.691895
6092.861811	0.111075	0.044976	7284.435547
6092.862721	0.085822	0.044976	7362.533203
6092.863619	0.085895	0.044976	7439.666504
6092.864551	0.086012	0.044976	7519.829590
6092.865454	0.085986	0.044976	7597.475098
6092.866355	0.085869	0.044976	7674.843262
6092.867242	0.085898	0.044976	7751.035156
6092.868187	0.085986	0.044976	7832.291992
6092.869085	0.086012	0.044976	7909.530762
6092.869983	0.085858	0.044976	7986.631348
6093.911034	1.124758	0.049025	550.006775
6093.911961	1.602524	0.049025	2035.546875
6093.912872	1.585085	0.049025	3479.559570
6093.913771	1.544070	0.049025	4867.678223
6093.914731	1.500798	0.049025	6308.444336
6093.915643	1.004586	0.049025	7224.626953
6093.916539	0.109193	0.049025	7322.463867
6093.917426	0.085807	0.049025	7398.574707
6093.918348	0.085942	0.049025	7477.813477
6093.919263	0.085873	0.049025	7556.387207
6093.920164	0.085898	0.049025	7633.781738
6093.921053	0.085876	0.049025	7710.125977
6093.922000	0.085928	0.049025	7791.499512
6093.922903	0.085950	0.049025	7869.112305
6093.923792	0.085928	0.049025	7945.501953
6093.924706	0.085920	0.049025	8024.033203
6094.924801	1.150521	0.044457	567.206970
6094.925729	1.602605	0.044457	2054.424316
6094.926637	1.584862	0.044457	3493.479004
6094.927533	1.543444	0.044457	4876.404297
6094.928488	1.500608	0.044457	6309.484863
6094.929406	1.004883	0.044457	7231.967285
6094.930298	0.108860	0.044457	7329.070312
6094.931216	0.085858	0.044457	7407.888184
6094.932135	0.085865	0.044457	7486.798340
6094.933032	0.085844	0.044457	7563.799805
6094.933919	0.085906	0.044457	7639.998047
6094.934846	0.085862	0.044457	7719.591797
6094.935760	0.085869	0.044457	7798.076172
6094.936661	0.085891	0.044457	7875.463867
6094.937553	0.085847	0.044457	7952.039551
6094.938502	0.085920	0.044457	8033.578125
6095.977418	1.098259	0.047804	477.742767
6095.978373	1.598851	0.047804	2004.645752
6095.979284	1.585950	0.047804	3449.445801
6095.980210	1.543890	0.047804	4879.088379
6095.981117	1.502882	0.047804	6242.202148
6095.982064	1.028654	0.047804	7216.336914
6095.982967	0.110083	0.047804	7315.741699
6095.983888	0.085814	0.047804	7394.776367
6095.984775	0.085865	0.047804	7470.938965
6095.985730	0.085931	0.047804	7553.003418
6095.986632	0.085844	0.047804	7630.434082
6095.987527	0.085913	0.047804	7707.326172
6095.988447	0.085880	0.047804	7786.335937
6095.989348	0.085854	0.047804	7863.690918
6095.990258	0.085909	0.047804	7941.868652
6095.991152	0.085884	0.047804	8018.648926
6096.992722	1.107008	0.045250	491.511536
6096.993621	1.599192	0.045250	1929.185059
6096.994514	1.587784	0.045250	3347.076660
6096.995485	1.544949	0.045250	4847.221680
6096.996392	1.503582	0.045250	6210.970215
6096.997291	1.117445	0.045250	7215.553223
6096.998222	0.126427	0.045250	7333.256836
6096.999141	0.085818	0.045250	7412.123535
6097.000040	0.085811	0.045250	7489.267090
6097.000924	0.085906	0.045250	7565.208008
6097.001857	0.085913	0.045250	7645.364746
6097.002759	0.085825	0.045250	7722.779297
6097.003680	0.085854	0.045250	7801.851074
6097.004575	0.085847	0.045250	7878.684082
6097.005528	0.085807	0.045250	7960.458008
6097.006430	0.085891	0.045250	8037.931641
6098.044364	1.105858	0.047619	486.577606
6098.045331	1.601781	0.047619	2035.499878
6098.046248	1.584935	0.047619	3488.885498
6098.047146	1.544019	0.047619	4875.414062
6098.048079	1.502454	0.047619	6277.203125
6098.049001	1.035480	0.047619	7231.915527
6098.049895	0.113269	0.047619	7333.178223
6098.050784	0.085865	0.047619	7409.512695
6098.051739	0.086016	0.047619	7491.657715
6098.052644	0.086012	0.047619	7569.498535
6098.053553	0.085913	0.047619	7647.593750
6098.054453	0.085851	0.047619	7724.859375
6098.055395	0.085811	0.047619	7805.692871
6098.056296	0.085851	0.047619	7883.044434
6098.057214	0.085880	0.047619	7961.882324
6098.058105	0.085994	0.047619	8038.502441
6099.062739	1.095989	0.045290	483.331024
6099.063644	1.599089	0.045290	1930.506958
6099.064537	1.588184	0.045290	3348.754883
6099.065520	1.543927	0.045290	4866.435059
6099.066429	1.502574	0.045290	6232.275391
6099.067362	1.053314	0.045290	7215.017578
6099.068248	0.116364	0.045290	7318.115723
6099.069204	0.085789	0.045290	7400.129395
6099.070119	0.085822	0.045290	7478.656250
6099.071003	0.085814	0.045290	7554.516113
6099.071932	0.085829	0.045290	7634.250977
6099.072842	0.085884	0.045290	7712.405273
6099.073765	0.085829	0.045290	7791.625488
6099.074661	0.085807	0.045290	7868.508301
6099.075626	0.085836	0.045290	7951.340332
6099.076539	0.085759	0.045290	8029.638672
6100.111301	1.090796	0.047450	472.314606
6100.112225	1.597775	0.047450	1948.658325
6100.113172	1.585613	0.047450	3450.233643
6100.114117	1.542715	0.047450	4908.099121
6100.115020	1.501952	0.047450	6264.361328
6100.115967	0.989594	0.047450	7201.506348
6100.116916	0.103608	0.047450	7299.830566
6100.117835	0.085822	0.047450	7378.700684
6100.118722	0.085833	0.047450	7454.833984
6100.119652	0.085909	0.047450	7534.729980
6100.120591	0.085862	0.047450	7615.354004
6100.121494	0.085906	0.047450	7692.926758
6100.122415	0.085865	0.047450	7772.008789
6100.123358	0.085858	0.047450	7852.973145
6100.124263	0.085898	0.047450	7930.711426
6100.125153	0.085796	0.047450	8007.069824
6101.130228	1.142823	0.046475	535.984192
6101.131132	1.601213	0.046475	1983.480957
6101.132026	1.586499	0.046475	3401.811035
6101.132974	1.543773	0.046475	4865.308105
6101.133922	1.501179	0.046475	6288.425781
6101.134838	1.021256	0.046475	7223.896484
6101.135767	0.108647	0.046475	7324.830078
6101.136706	0.085840	0.046475	7405.433594
6101.137617	0.085887	0.046475	7483.677246
6101.138502	0.085825	0.046475	7559.632324
6101.139449	0.085884	0.046475	7640.964355
6101.140379	0.085880	0.046475	7720.833008
6101.141280	0.085902	0.046475	7798.230957
6101.142203	0.085862	0.046475	7877.481445
6101.143132	0.085887	0.046475	7957.270996
6101.144055	0.085909	0.046475	8036.565430
6102.177761	1.117266	0.047421	506.121368
6102.178654	1.599463	0.047421	1934.441650
6102.179584	1.586664	0.047421	3410.039062
6102.180531	1.543934	0.047421	4872.145020
6102.181454	1.501959	0.047421	6258.453125
6102.182367	1.036055	0.047421	7204.371094
6102.183316	0.107809	0.047421	7306.681641
6102.184254	0.085807	0.047421	7387.168457
6102.185155	0.085854	0.047421	7464.523437
6102.186073	0.085807	0.047421	7543.293945
6102.187010	0.085858	0.047421	7623.743164
6102.187925	0.085858	0.047421	7702.303223
6102.188815	0.085902	0.047421	7778.755859
6102.189759	0.085825	0.047421	7859.774902
6102.190686	0.085851	0.047421	7939.358398
6102.191586	0.085906	0.047421	8016.673828
6103.198155	1.093143	0.047776	475.517365
6103.199104	1.598991	0.047776	1992.959351
6103.200023	1.585404	0.047776	3449.945801
6103.200958	1.543367	0.047776	4892.993652
6103.201857	1.502651	0.047776	6243.877441
6103.202790	1.038395	0.047776	7212.699707
6103.203735	0.108516	0.047776	7315.247070
6103.204657	0.085833	0.047776	7394.384766
6103.205547	0.085825	0.047776	7470.769043
6103.206492	0.085814	0.047776	7551.863281
6103.207424	0.085829	0.047776	7631.855957
6103.208322	0.085924	0.047776	7709.015625
6103.209254	0.085844	0.047776	7789.021973
6103.210183	0.085858	0.047776	7868.784180
6103.211091	0.085917	0.047776	7946.796387
6103.211990	0.085854	0.047776	8023.979492
6104.244699	1.107609	0.047373	496.208679
6104.245592	1.598595	0.047373	1923.753906
6104.246559	1.585129	0.047373	3456.573975
6104.247503	1.542620	0.047373	4912.806641
6104.248406	1.501692	0.047373	6268.834473
6104.249343	1.001466	0.047373	7207.208008
6104.250292	0.104209	0.047373	7306.102539
6104.251209	0.085851	0.047373	7384.827637
6104.252095	0.085814	0.047373	7460.858887
6104.253038	0.085935	0.047373	7541.895508
6104.253975	0.085887	0.047373	7622.372070
6104.254880	0.085928	0.047373	7700.136719
6104.255803	0.085909	0.047373	7779.431152
6104.256728	0.085957	0.047373	7858.941406
6104.257646	0.085909	0.047373	7937.806152
6104.258540	0.085807	0.047373	8014.517578
6105.266121	1.105957	0.046696	487.727051
6105.267075	1.601960	0.046696	2015.997314
6105.267995	1.585342	0.046696	3474.511719
6105.268900	1.544333	0.046696	4872.133789
6105.269835	1.502483	0.046696	6276.955078
6105.270764	1.030942	0.046696	7234.700684
6105.271658	0.112310	0.046696	7335.105469
6105.272550	0.085785	0.046696	7411.625488
6105.273505	0.085994	0.046696	7493.749512
6105.274407	0.085986	0.046696	7571.309082
6105.275304	0.085953	0.046696	7648.409180
6105.276190	0.085972	0.046696	7724.580078
6105.277127	0.085946	0.046696	7805.111328
6105.278035	0.085880	0.046696	7883.090332
6105.278933	0.085884	0.046696	7960.213867
6105.279864	0.085979	0.046696	8040.260254
6106.312132	1.097322	0.047808	478.432281
6106.313090	1.598767	0.047808	2010.051025
6106.313994	1.586305	0.047808	3444.070801
6106.314894	1.545432	0.047808	4834.959961
6106.315790	1.504709	0.047808	6183.179687
6106.316754	1.054277	0.047808	7199.502930
6106.317656	0.114825	0.047808	7303.075684
6106.318561	0.085807	0.047808	7380.730957
6106.319452	0.085913	0.047808	7457.279297
6106.320404	0.085997	0.047808	7539.148926
6106.321306	0.085909	0.047808	7616.639160
6106.322204	0.085873	0.047808	7693.752930
6106.323090	0.085924	0.047808	7769.881836
6106.324044	0.086008	0.047808	7851.933594
6106.324938	0.085906	0.047808	7928.733398
6106.325825	0.085950	0.047808	8004.970703
6107.334105	1.116962	0.046781	495.931000
6107.335009	1.599309	0.046781	1941.706421
6107.335904	1.588184	0.046781	3363.130615
6107.336846	1.546099	0.046781	4819.555664
6107.337766	1.503860	0.046781	6203.106934
6107.338686	1.101669	0.046781	7216.642090
6107.339575	0.124607	0.046781	7327.417480
6107.340516	0.085873	0.046781	7408.223633
6107.341423	0.085803	0.046781	7486.047363
6107.342324	0.085873	0.046781	7563.418945
6107.343212	0.085953	0.046781	7639.745605
6107.344148	0.085902	0.046781	7720.149902
6107.345056	0.085924	0.046781	7798.168945
6107.345948	0.085928	0.046781	7874.816406
6107.346873	0.085939	0.046781	7954.309570
6107.347786	0.085913	0.046781	8032.748047
6108.379601	1.115490	0.048134	497.508362
6108.380563	1.602213	0.048134	2038.837402
6108.381484	1.584664	0.048134	3498.312988
6108.382382	1.544026	0.048134	4884.848145
6108.383321	1.502095	0.048134	6295.314941
6108.384252	1.011797	0.048134	7237.297852
6108.385152	0.109263	0.048134	7335.634277
6108.386038	0.085825	0.048134	7411.675293
6108.386984	0.085920	0.048134	7492.956055
6108.387892	0.085862	0.048134	7570.918457
6108.388783	0.085895	0.048134	7647.450684
6108.389675	0.085851	0.048134	7724.029785
6108.390619	0.085880	0.048134	7805.100586
6108.391522	0.085909	0.048134	7882.676758
6108.392415	0.085876	0.048134	7959.364258
6108.393346	0.085902	0.048134	8039.338867
6109.401042	1.112175	0.047353	496.030212
6109.401943	1.599335	0.047353	1937.030762
6109.402837	1.587843	0.047353	3356.562500
6109.403798	1.544989	0.047353	4841.296875
6109.404712	1.503461	0.047353	6215.459961
6109.405618	1.107330	0.047353	7218.701172
6109.406549	0.124277	0.047353	7334.403320
6109.407453	0.085836	0.047353	7411.999023
6109.408350	0.085895	0.047353	7489.046875
6109.409235	0.085913	0.047353	7565.080078
6109.410167	0.085920	0.047353	7645.157715
6109.411073	0.085836	0.047353	7722.925293
6109.411973	0.085942	0.047353	7800.273437
6109.412864	0.085979	0.047353	7876.880859
6109.413817	0.085931	0.047353	7958.773437
6109.414723	0.085880	0.047353	8036.581055
6110.448092	1.111978	0.048779	501.501892
6110.448988	1.599327	0.048779	1934.499268
6110.449947	1.586316	0.048779	3455.776367
6110.450857	1.544421	0.048779	4861.199707
6110.451761	1.503292	0.048779	6220.175781
6110.452665	1.093348	0.048779	7208.562500
6110.453609	0.112775	0.048779	7315.021973
6110.454517	0.085774	0.048779	7392.904785
6110.455407	0.085869	0.048779	7469.328125
6110.456323	0.085895	0.048779	7548.007812
6110.457237	0.085957	0.048779	7626.572754
6110.458132	0.085909	0.048779	7703.461914
6110.459021	0.085851	0.048779	7779.783203
6110.459965	0.085983	0.048779	7860.950684
6110.460863	0.085906	0.048779	7938.094238
6110.461762	0.085928	0.048779	8015.343262
6111.467487	1.117251	0.047599	506.114655
6111.468392	1.599657	0.047599	1953.804199
6111.469285	1.587495	0.047599	3371.437500
6111.470231	1.544912	0.047599	4832.924316
6111.471144	1.503376	0.047599	6205.506836
6111.472048	1.115387	0.047599	7213.816406
6111.472982	0.125830	0.047599	7331.341797
6111.473891	0.085726	0.047599	7409.267090
6111.474800	0.085898	0.047599	7487.348633
6111.475689	0.085876	0.047599	7563.692871
6111.476634	0.085898	0.047599	7644.866699
6111.477543	0.085789	0.047599	7722.848633
6111.478438	0.085851	0.047599	7799.685059
6111.479324	0.085876	0.047599	7875.771484
6111.480253	0.085891	0.047599	7955.564453
6111.481161	0.085811	0.047599	8033.480469
6112.516043	1.092371	0.049871	478.458344
6112.517005	1.601422	0.049871	2019.026489
6112.517905	1.585342	0.049871	3445.833984
6112.518828	1.543718	0.049871	4870.686035
6112.519735	1.502043	0.049871	6233.039551
6112.520719	0.990088	0.049871	7207.286133
6112.521622	0.106271	0.049871	7303.248535
6112.522513	0.085734	0.049871	7379.637207
6112.523443	0.085814	0.049871	7459.444336
6112.524357	0.085690	0.049871	7537.764648
6112.525272	0.085836	0.049871	7616.304687
6112.526160	0.085730	0.049871	7692.433105
6112.527110	0.085895	0.049871	7774.033203
6112.528006	0.085726	0.049871	7850.843750
6112.528918	0.085789	0.049871	7929.083008
6112.529820	0.085807	0.049871	8006.480957
6113.533908	1.111736	0.047703	498.057648
6113.534805	1.599122	0.047703	1932.470337
6113.535699	1.588396	0.047703	3352.496338
6113.536657	1.546124	0.047703	4833.683594
6113.537582	1.503662	0.047703	6224.571289
6113.538506	1.084233	0.047703	7226.402832
6113.539392	0.121930	0.047703	7334.432617
6113.540329	0.085818	0.047703	7414.843750
6113.541238	0.085789	0.047703	7492.825684
6113.542161	0.085880	0.047703	7572.093262
6113.543051	0.085924	0.047703	7648.565918
6113.544001	0.085854	0.047703	7730.127930
6113.544898	0.085865	0.047703	7807.149414
6113.545793	0.085847	0.047703	7883.982422
6113.546731	0.085854	0.047703	7964.514160
6113.547632	0.085807	0.047703	8041.826172
6114.584554	1.122869	0.050604	514.273865
6114.585465	1.600323	0.050604	1972.168457
6114.586359	1.587605	0.050604	3391.487305
6114.587308	1.544736	0.050604	4857.441895
6114.588214	1.502846	0.050604	6219.020020
6114.589147	1.063286	0.050604	7211.065918
6114.590047	0.116796	0.050604	7316.182129
6114.590996	0.085792	0.050604	7397.599121
6114.591909	0.085873	0.050604	7476.000977
6114.592807	0.085873	0.050604	7553.114746
6114.593742	0.085869	0.050604	7633.402344
6114.594655	0.085847	0.050604	7711.780762
6114.595575	0.085833	0.050604	7790.746582
6114.596464	0.085847	0.050604	7867.064941
6114.597422	0.085869	0.050604	7949.327637
6114.598348	0.085884	0.050604	8028.855957
6115.599311	1.100131	0.048191	482.957367
6115.600205	1.598192	0.048191	1911.741089
6115.601144	1.586649	0.048191	3401.604492
6115.602095	1.543901	0.048191	4869.854492
6115.603018	1.502117	0.048191	6256.308105
6115.603923	1.047546	0.048191	7204.337402
6115.604872	0.110500	0.048191	7309.202148
6115.605811	0.085814	0.048191	7389.781738
6115.606701	0.085983	0.048191	7466.306152
6115.607614	0.085836	0.048191	7544.674805
6115.608551	0.085880	0.048191	7625.144531
6115.609467	0.085891	0.048191	7703.820801
6115.610359	0.085851	0.048191	7780.399902
6115.611311	0.085876	0.048191	7862.154297
6115.612245	0.085913	0.048191	7942.396973
6115.613143	0.085975	0.048191	8019.603027
6116.654038	1.124176	0.050850	503.630859
6116.655018	1.602708	0.050850	2074.284180
6116.655942	1.583635	0.050850	3537.562988
6116.656841	1.542466	0.050850	4924.239746
6116.657760	1.500905	0.050850	6303.571289
6116.658721	0.950955	0.050850	7217.438477
6116.659650	0.100800	0.050850	7311.081055
6116.660539	0.085825	0.050850	7387.379883
6116.661484	0.085854	0.050850	7468.512207
6116.662414	0.085895	0.050850	7548.394531
6116.663307	0.085906	0.050850	7625.108398
6116.664222	0.085858	0.050850	7703.668457
6116.665151	0.085887	0.050850	7783.458008
6116.666084	0.085811	0.050850	7863.519043
6116.666982	0.085909	0.050850	7940.665527
6116.667895	0.085869	0.050850	8019.063965
6117.666257	1.098497	0.048739	483.338867
6117.667152	1.598309	0.048739	1913.825684
6117.668127	1.585547	0.048739	3459.733887
6117.669051	1.543462	0.048739	4885.892578
6117.669951	1.502549	0.048739	6238.186523
6117.670884	1.045554	0.048739	7213.688477
6117.671831	0.109969	0.048739	7317.829590
6117.672745	0.085792	0.048739	7396.243652
6117.673631	0.085840	0.048739	7472.297852
6117.674561	0.085920	0.048739	7552.203613
6117.675496	0.085895	0.048739	7632.515137
6117.676390	0.085946	0.048739	7709.351074
6117.677297	0.085869	0.048739	7787.234375
6117.678221	0.085928	0.048739	7866.631836
6117.679158	0.085811	0.048739	7947.036133
6117.680053	0.085902	0.048739	8023.918457
6118.721010	1.138938	0.052416	542.134521
6118.721946	1.601964	0.052416	2041.572876
6118.722878	1.584419	0.052416	3518.251465
6118.723774	1.542744	0.052416	4900.550293
6118.724725	1.500121	0.052416	6327.165039
6118.725679	0.942590	0.052416	7226.396484
6118.726579	0.102616	0.052416	7318.750977
6118.727507	0.085778	0.052416	7398.352539
6118.728452	0.085825	0.052416	7479.457520
6118.729365	0.085854	0.052416	7557.842773
6118.730255	0.085774	0.052416	7634.181641
6118.731189	0.085796	0.052416	7714.314941
6118.732125	0.085822	0.052416	7794.644043
6118.733045	0.085873	0.052416	7873.646973
6118.733942	0.085862	0.052416	7950.665039
6118.734886	0.085865	0.052416	8031.722168
6119.733194	1.097476	0.048279	479.596863
6119.734089	1.598020	0.048279	1909.824951
6119.735060	1.585591	0.048279	3449.433594
6119.735998	1.543440	0.048279	4897.180176
6119.736897	1.502516	0.048279	6247.941895
6119.737837	1.022395	0.048279	7208.993164
6119.738778	0.107538	0.048279	7310.186035
6119.739689	0.085800	0.048279	7388.349609
6119.740586	0.085862	0.048279	7465.367676
6119.741523	0.085891	0.048279	7545.847656
6119.742458	0.085829	0.048279	7626.097656
6119.743358	0.085898	0.048279	7703.406250
6119.744278	0.085862	0.048279	7782.398926
6119.745221	0.085833	0.048279	7863.338867
6119.746138	0.085847	0.048279	7942.060547
6119.747027	0.085891	0.048279	8018.417969
6120.788943	1.110147	0.053540	490.684753
6120.789858	1.599580	0.053540	1954.300537
6120.790769	1.587352	0.053540	3400.378418
6120.791708	1.545319	0.053540	4851.432617
6120.792613	1.503878	0.053540	6212.442383
6120.793525	1.101903	0.053540	7217.377930
6120.794410	0.125493	0.053540	7328.439453
6120.795355	0.085858	0.053540	7409.575195
6120.796258	0.085906	0.053540	7487.147949
6120.797159	0.085880	0.053540	7564.525879
6120.798044	0.085902	0.053540	7640.549316
6120.798991	0.086019	0.053540	7722.009766
6120.799896	0.085931	0.053540	7799.777832
6120.800793	0.085909	0.053540	7876.838379
6120.801728	0.085884	0.053540	7957.139648
6120.802622	0.085865	0.053540	8033.903320
6121.800139	1.096509	0.048142	481.367401
6121.801029	1.597980	0.048142	1903.569336
6121.801992	1.586715	0.048142	3431.575928
6121.802911	1.545055	0.048142	4851.481445
6121.803806	1.504171	0.048142	6197.714844
6121.804725	1.077162	0.048142	7187.626465
6121.805656	0.116210	0.048142	7295.817871
6121.806565	0.085763	0.048142	7373.776367
6121.807464	0.085906	0.048142	7451.005859
6121.808394	0.085942	0.048142	7530.932129
6121.809298	0.085854	0.048142	7608.544434
6121.810202	0.085858	0.048142	7686.160156
6121.811091	0.085847	0.048142	7762.478516
6121.812036	0.085964	0.048142	7843.714844
6121.812943	0.085884	0.048142	7921.611328
6121.813830	0.085873	0.048142	7997.780273
6122.856408	1.114211	0.054278	504.737793
6122.857302	1.599265	0.054278	1934.480835
6122.858254	1.586371	0.054278	3444.705811
6122.859169	1.544755	0.054278	4858.156250
6122.860077	1.503318	0.054278	6223.168945
6122.860983	1.087679	0.054278	7208.606445
6122.861941	0.109347	0.054278	7313.360840
6122.862847	0.085833	0.054278	7391.125000
6122.863747	0.085931	0.054278	7468.463379
6122.864673	0.085865	0.054278	7547.974609
6122.865580	0.085939	0.054278	7625.920898
6122.866488	0.085847	0.054278	7703.870117
6122.867377	0.085836	0.054278	7780.178711
6122.868311	0.085935	0.054278	7860.441895
6122.869221	0.085858	0.054278	7938.572754
6122.870129	0.085862	0.054278	8016.535156
6123.867593	1.100914	0.047949	482.200439
6123.868555	1.601964	0.047949	2023.289917
6123.869476	1.584987	0.047949	3483.062500
6123.870381	1.544081	0.047949	4880.455566
6123.871321	1.502135	0.047949	6292.462402
6123.872252	1.013617	0.047949	7236.139648
6123.873158	0.108962	0.047949	7334.859375
6123.874050	0.085712	0.047949	7411.313965
6123.874993	0.085873	0.047949	7492.291992
6123.875891	0.085844	0.047949	7569.379395
6123.876789	0.085800	0.047949	7646.427246
6123.877679	0.085734	0.047949	7722.729980
6123.878622	0.085800	0.047949	7803.639160
6123.879540	0.085789	0.047949	7882.393066
6123.880438	0.085800	0.047949	7959.440918
6123.881368	0.085862	0.047949	8039.292480
6124.923352	1.114248	0.053887	496.954620
6124.924256	1.599778	0.053887	1943.153687
6124.925200	1.586415	0.053887	3440.729248
6124.926122	1.544366	0.053887	4864.635254
6124.927029	1.503190	0.053887	6228.028320
6124.927928	1.086929	0.053887	7205.177246
6124.928896	0.109237	0.053887	7310.918945
6124.929796	0.085752	0.053887	7388.095703
6124.930687	0.085942	0.053887	7464.670410
6124.931603	0.085865	0.053887	7543.323242
6124.932508	0.085909	0.053887	7621.071289
6124.933403	0.085953	0.053887	7697.999512
6124.934296	0.085891	0.053887	7774.700195
6124.935230	0.085858	0.053887	7854.891602
6124.936141	0.085800	0.053887	7933.055176
6124.937035	0.085946	0.053887	8009.891113
6125.936095	1.124326	0.047546	513.817078
6125.936989	1.599620	0.047546	1943.877686
6125.937938	1.586693	0.047546	3449.649414
6125.938844	1.545026	0.047546	4849.442871
6125.939744	1.504032	0.047546	6203.071777
6125.940645	1.119093	0.047546	7211.374512
6125.941587	0.116686	0.047546	7321.292480
6125.942495	0.085803	0.047546	7399.201660
6125.943389	0.085891	0.047546	7475.988281
6125.944292	0.085902	0.047546	7553.558105
6125.945222	0.085935	0.047546	7633.477539
6125.946128	0.085917	0.047546	7711.318359
6125.947020	0.085891	0.047546	7787.933105
6125.947953	0.085906	0.047546	7868.083008
6125.948845	0.085953	0.047546	7944.753418
6125.949748	0.085891	0.047546	8022.312988
6126.989266	1.109560	0.053468	492.644867
6126.990168	1.599368	0.053468	1935.274536
6126.991112	1.586664	0.053468	3433.085205
6126.992026	1.544978	0.053468	4845.195312
6126.992936	1.503376	0.053468	6213.267578
6126.993834	1.116980	0.053468	7216.315430
6126.994785	0.114891	0.053468	7325.577148
6126.995689	0.085789	0.053468	7403.129883
6126.996586	0.085825	0.053468	7480.115234
6126.997476	0.085964	0.053468	7556.623535
6126.998409	0.085953	0.053468	7636.817871
6126.999318	0.085854	0.053468	7714.859375
6127.000212	0.085884	0.053468	7791.639648
6127.001137	0.085902	0.053468	7871.099121
6127.002038	0.085898	0.053468	7948.493652
6127.002944	0.085957	0.053468	8026.370605
6128.004602	1.158549	0.046318	551.469116
6128.005526	1.601755	0.046318	2031.491089
6128.006437	1.585353	0.046318	3475.747559
6128.007334	1.543780	0.046318	4860.518555
6128.008294	1.501091	0.046318	6301.566406
6128.009212	1.018107	0.046318	7236.188477
6128.010108	0.110793	0.046318	7335.459473
6128.011061	0.085891	0.046318	7417.313477
6128.011963	0.085961	0.046318	7494.850098
6128.012858	0.085935	0.046318	7571.762207
6128.013745	0.085876	0.046318	7647.934570
6128.014681	0.085972	0.046318	7728.404297
6128.015581	0.085964	0.046318	7805.772461
6128.016483	0.085807	0.046318	7883.170410
6128.017381	0.085946	0.046318	7960.350098
6128.018325	0.085961	0.046318	8041.497070
6129.054729	1.153345	0.051502	580.132324
6129.055649	1.602063	0.051502	2054.030273
6129.056551	1.584990	0.051502	3483.691406
6129.057442	1.544073	0.051502	4859.460937
6129.058392	1.501300	0.051502	6285.695801
6129.059307	1.027716	0.051502	7226.056152
6129.060197	0.111855	0.051502	7325.607422
6129.061106	0.085781	0.051502	7403.582520
6129.062046	0.085946	0.051502	7484.371582
6129.062952	0.085858	0.051502	7562.159180
6129.063842	0.085814	0.051502	7638.533691
6129.064788	0.085902	0.051502	7719.796875
6129.065693	0.085836	0.051502	7797.478516
6129.066593	0.085887	0.051502	7874.777344
6129.067479	0.085942	0.051502	7950.922363
6129.068414	0.085935	0.051502	8031.271484
6130.073549	1.095311	0.046491	478.651031
6130.074502	1.601558	0.046491	2004.935425
6130.075419	1.585730	0.046491	3459.049805
6130.076324	1.544659	0.046491	4856.966797
6130.077245	1.503201	0.046491	6241.414551
6130.078165	1.067919	0.046491	7223.899902
6130.079075	0.116459	0.046491	7329.877441
6130.079966	0.085840	0.046491	7406.360840
6130.080896	0.085898	0.046491	7486.246582
6130.081797	0.085862	0.046491	7563.607910
6130.082702	0.085884	0.046491	7641.332520
6130.083593	0.085840	0.046491	7717.815918
6130.084540	0.085935	0.046491	7799.196289
6130.085438	0.085803	0.046491	7876.247559
6130.086336	0.085865	0.046491	7953.354980
6130.087229	0.085862	0.046491	8030.029785
6131.121151	1.147086	0.050624	562.072205
6131.122082	1.602748	0.050624	2054.230469
6131.122990	1.584661	0.050624	3493.102295
6131.123885	1.543623	0.050624	4874.645020
6131.124850	1.500249	0.050624	6322.385254
6131.125763	0.999642	0.050624	7235.058594
6131.126660	0.108245	0.050624	7332.153809
6131.127565	0.085822	0.050624	7409.822266
6131.128495	0.085833	0.050624	7489.646484
6131.129397	0.085818	0.050624	7567.054199
6131.130286	0.085876	0.050624	7643.398437
6131.131219	0.085891	0.050624	7723.534668
6131.132128	0.085880	0.050624	7801.599609
6131.133031	0.085917	0.050624	7879.182617
6131.133918	0.085840	0.050624	7955.322754
6131.134860	0.085939	0.050624	8036.276855
6132.143057	1.097113	0.046068	483.826843
6132.143951	1.598027	0.046068	1912.463379
6132.144899	1.586726	0.046068	3416.679687
6132.145814	1.545304	0.046068	4830.632812
6132.146706	1.504713	0.046068	6172.836914
6132.147669	1.076019	0.046068	7209.043457
6132.148582	0.115338	0.046068	7314.347168
6132.149482	0.085763	0.046068	7391.533691
6132.150370	0.085913	0.046068	7467.824707
6132.151307	0.085917	0.046068	7548.328613
6132.152211	0.085917	0.046068	7625.997559
6132.153106	0.085931	0.046068	7702.906250
6132.153992	0.085895	0.046068	7779.008789
6132.154933	0.085898	0.046068	7859.839355
6132.155842	0.085836	0.046068	7937.864258
6132.156731	0.085906	0.046068	8014.234375
6133.186502	1.094410	0.049210	476.068542
6133.187470	1.598218	0.049210	2023.143311
6133.188403	1.584386	0.049210	3501.375488
6133.189314	1.543026	0.049210	4907.072266
6133.190210	1.502468	0.049210	6253.283691
6133.191164	1.013156	0.049210	7219.833984
6133.192079	0.107245	0.049210	7317.962891
6133.192978	0.085792	0.049210	7395.090332
6133.193868	0.085880	0.049210	7471.523437
6133.194800	0.085854	0.049210	7551.540039
6133.195699	0.085876	0.049210	7628.743164
6133.196585	0.085876	0.049210	7704.829590
6133.197521	0.085880	0.049210	7785.213379
6133.198434	0.085887	0.049210	7863.628418
6133.199340	0.085811	0.049210	7941.372559
6133.200232	0.085833	0.049210	8017.935059
6134.211575	1.158885	0.045834	553.947266
6134.212498	1.602096	0.045834	2032.681885
6134.213392	1.586082	0.045834	3450.638672
6134.214352	1.542979	0.045834	4931.897949
6134.215269	1.501088	0.045834	6308.395508
6134.216181	1.030375	0.045834	7248.097168
6134.217067	0.113350	0.045834	7348.524902
6134.218008	0.085928	0.045834	7429.382812
6134.218915	0.085851	0.045834	7507.249512
6134.219803	0.085917	0.045834	7583.543457
6134.220734	0.085858	0.045834	7663.477539
6134.221645	0.085898	0.045834	7741.730957
6134.222553	0.085917	0.045834	7819.743164
6134.223442	0.085994	0.045834	7896.191406
6134.224389	0.085994	0.045834	7977.627441
6134.225297	0.085858	0.045834	8055.586426
6135.252939	1.105492	0.048493	488.627411
6135.253888	1.598697	0.048493	2005.791260
6135.254815	1.585291	0.048493	3475.355469
6135.255723	1.544363	0.048493	4877.636719
6135.256620	1.503223	0.048493	6226.027344
6135.257593	1.017187	0.048493	7215.750977
6135.258496	0.109384	0.048493	7314.524414
6135.259396	0.085811	0.048493	7391.753906
6135.260287	0.085818	0.048493	7468.217773
6135.261222	0.085928	0.048493	7548.560059
6135.262136	0.085844	0.048493	7627.020996
6135.263054	0.085898	0.048493	7705.875977
6135.263944	0.085917	0.048493	7782.341797
6135.264881	0.085950	0.048493	7862.876465
6135.265783	0.085847	0.048493	7940.310547
6135.266673	0.085884	0.048493	8016.747070
6136.281554	1.105082	0.046455	489.551239
6136.282455	1.598976	0.046455	1930.228516
6136.283352	1.588586	0.046455	3355.190430
6136.284295	1.546681	0.046455	4813.710449
6136.285216	1.504017	0.046455	6198.910156
6136.286125	1.114182	0.046455	7211.701660
6136.287011	0.127456	0.046455	7324.627930
6136.287941	0.085873	0.046455	7404.489746
6136.288847	0.085869	0.046455	7482.287109
6136.289768	0.085935	0.046455	7561.433105
6136.290661	0.085913	0.046455	7638.153320
6136.291610	0.085822	0.046455	7719.598145
6136.292516	0.085825	0.046455	7797.355957
6136.293408	0.085884	0.046455	7873.964355
6136.294340	0.085836	0.046455	7953.963867
6136.295258	0.085792	0.046455	8032.721191
6137.318357	1.113146	0.048795	496.463043
6137.319271	1.599858	0.048795	1958.733643
6137.320172	1.587437	0.048795	3389.014160
6137.321115	1.544846	0.048795	4845.804199
6137.322044	1.502706	0.048795	6241.818359
6137.322975	1.054966	0.048795	7223.991699
6137.323857	0.117155	0.048795	7327.321777
6137.324815	0.085763	0.048795	7409.482422
6137.325712	0.085785	0.048795	7486.431641
6137.326600	0.085833	0.048795	7562.650879
6137.327537	0.085876	0.048795	7643.117187
6137.328438	0.085825	0.048795	7720.445801
6137.329363	0.085778	0.048795	7799.790039
6137.330254	0.085833	0.048795	7876.266602
6137.331191	0.085920	0.048795	7956.773926
6137.332114	0.085803	0.048795	8035.970215
6138.349512	1.099098	0.047079	481.404907
6138.350406	1.597657	0.047079	1909.710693
6138.351396	1.585052	0.047079	3478.912598
6138.352300	1.544066	0.047079	4874.748047
6138.353193	1.503439	0.047079	6217.318848
6138.354152	1.057866	0.047079	7231.812500
6138.355048	0.115565	0.047079	7335.358887
6138.355964	0.085712	0.047079	7413.870605
6138.356864	0.085862	0.047079	7491.146484
6138.357801	0.085931	0.047079	7571.664062
6138.358713	0.085862	0.047079	7649.970215
6138.359631	0.085770	0.047079	7728.707520
6138.360520	0.085851	0.047079	7805.028809
6138.361470	0.085891	0.047079	7886.625488
6138.362362	0.085844	0.047079	7963.197754
6138.363254	0.085876	0.047079	8039.799805
6139.385305	1.128754	0.049202	509.067902
6139.386247	1.602085	0.049202	2018.231934
6139.387144	1.585499	0.049202	3440.424805
6139.388120	1.541938	0.049202	4945.356445
6139.389025	1.501007	0.049202	6303.767578
6139.389924	1.038984	0.049202	7237.814453
6139.390879	0.109761	0.049202	7342.635742
6139.391780	0.085778	0.049202	7419.921387
6139.392704	0.085873	0.049202	7499.268066
6139.393591	0.085909	0.049202	7575.469727
6139.394523	0.085917	0.049202	7655.543945
6139.395427	0.085844	0.049202	7733.146484
6139.396317	0.085873	0.049202	7809.573242
6139.397232	0.085862	0.049202	7888.136719
6139.398159	0.085836	0.049202	7967.707031
6139.399058	0.085854	0.049202	8044.890137
6140.418004	1.117969	0.047466	499.732056
6140.418909	1.599584	0.047466	1947.355347
6140.419802	1.588022	0.047466	3365.459473
6140.420739	1.546263	0.047466	4814.308105
6140.421661	1.503827	0.047466	6200.836426
6140.422602	1.075994	0.047466	7213.346680
6140.423490	0.120458	0.047466	7320.312988
6140.424446	0.085880	0.047466	7402.414551
6140.425342	0.085811	0.047466	7479.300781
6140.426230	0.085811	0.047466	7555.500488
6140.427152	0.085928	0.047466	7634.726074
6140.428066	0.085811	0.047466	7713.156738
6140.428971	0.085763	0.047466	7790.771973
6140.429858	0.085862	0.047466	7866.931641
6140.430798	0.085858	0.047466	7947.638184
6140.431705	0.085822	0.047466	8025.478516
6141.452234	1.100566	0.048138	483.148651
6141.453130	1.598599	0.048138	1915.493042
6141.454100	1.585913	0.048138	3453.828613
6141.455025	1.543707	0.048138	4881.757812
6141.455944	1.502062	0.048138	6262.152344
6141.456843	1.051582	0.048138	7207.524414
6141.457790	0.110669	0.048138	7312.328125
6141.458688	0.085807	0.048138	7389.382812
6141.459575	0.085891	0.048138	7465.568359
6141.460509	0.085939	0.048138	7545.834961
6141.461419	0.085847	0.048138	7623.956055
6141.462337	0.085880	0.048138	7702.793945
6141.463233	0.085858	0.048138	7779.722656
6141.464175	0.085939	0.048138	7860.676758
6141.465084	0.085847	0.048138	7938.711914
6141.466005	0.085876	0.048138	8017.804199
6142.485504	1.162328	0.047135	571.865295
6142.486405	1.601356	0.047135	2014.687256
6142.487365	1.584071	0.047135	3535.395508
6142.488276	1.541935	0.047135	4940.098145
6142.489197	1.500238	0.047135	6321.817383
6142.490110	0.977457	0.047135	7214.235840
6142.491054	0.102239	0.047135	7310.749023
6142.491957	0.085807	0.047135	7388.232422
6142.492847	0.085906	0.047135	7464.688477
6142.493779	0.085887	0.047135	7544.735352
6142.494686	0.085792	0.047135	7622.548828
6142.495611	0.085829	0.047135	7701.940430
6142.496507	0.085865	0.047135	7778.875977
6142.497466	0.085869	0.047135	7861.224609
6142.498369	0.085862	0.047135	7938.757812
6142.499257	0.085880	0.047135	8015.019531
6143.519689	1.095564	0.048074	478.761414
6143.520643	1.601030	0.048074	2006.144287
6143.521560	1.584844	0.048074	3459.446045
6143.522490	1.543304	0.048074	4894.719238
6143.523388	1.501904	0.048074	6243.429199
6143.524360	0.994340	0.048074	7209.927246
6143.525262	0.106611	0.048074	7306.090820
6143.526183	0.085752	0.048074	7385.068359
6143.527072	0.085887	0.048074	7461.422363
6143.528019	0.085774	0.048074	7542.650391
6143.528941	0.085876	0.048074	7621.828613
6143.529830	0.085840	0.048074	7698.140137
6143.530788	0.085884	0.048074	7780.416992
6143.531690	0.085851	0.048074	7857.854492
6143.532601	0.085807	0.048074	7936.024414
6143.533497	0.085884	0.048074	8012.976074
6144.553490	1.139440	0.047047	578.835388
6144.554401	1.602034	0.047047	2038.288086
6144.555317	1.583899	0.047047	3489.139648
6144.556218	1.543202	0.047047	4879.564453
6144.557155	1.500623	0.047047	6285.647949
6144.558082	0.993212	0.047047	7206.354980
6144.559002	0.104956	0.047047	7302.914551
6144.559890	0.085730	0.047047	7379.042969
6144.560847	0.085800	0.047047	7461.153320
6144.561748	0.085840	0.047047	7538.495117
6144.562644	0.085873	0.047047	7615.437012
6144.563595	0.085873	0.047047	7697.102051
6144.564505	0.085836	0.047047	7775.212891
6144.565423	0.085814	0.047047	7853.990234
6144.566309	0.085844	0.047047	7930.047363
6144.567236	0.085836	0.047047	8009.617676
6145.587174	1.132665	0.049347	517.627808
6145.588081	1.600203	0.049347	1969.011597
6145.588979	1.587440	0.049347	3394.532959
6145.589911	1.545406	0.049347	4834.851562
6145.590846	1.502461	0.049347	6239.652344
6145.591763	1.050853	0.049347	7203.284668
6145.592686	0.112273	0.049347	7306.912598
6145.593574	0.085737	0.049347	7383.047363
6145.594525	0.085840	0.049347	7464.681152
6145.595445	0.085873	0.049347	7543.684082
6145.596334	0.085880	0.049347	7620.031738
6145.597280	0.085803	0.049347	7701.201660
6145.598176	0.085822	0.049347	7778.097656
6145.599107	0.085803	0.049347	7857.980469
6145.599997	0.085913	0.049347	7934.443359
6145.600944	0.085833	0.049347	8015.726562
6146.620889	1.111476	0.047985	499.052643
6146.621794	1.599265	0.047985	1946.387573
6146.622689	1.587916	0.047985	3367.572754
6146.623656	1.544337	0.047985	4860.946777
6146.624557	1.502911	0.047985	6215.069824
6146.625491	1.067260	0.047985	7211.890137
6146.626376	0.118502	0.047985	7316.764648
6146.627317	0.085781	0.047985	7397.484863
6146.628215	0.085847	0.047985	7474.575684
6146.629128	0.085825	0.047985	7552.934082
6146.630018	0.085880	0.047985	7629.367187
6146.630970	0.085803	0.047985	7711.051758
6146.631889	0.085847	0.047985	7789.945312
6146.632777	0.085876	0.047985	7866.203613
6146.633697	0.085876	0.047985	7945.209961
6146.634630	0.085847	0.047985	8025.305176
6147.654608	1.096055	0.049669	483.360107
6147.655509	1.598804	0.049669	1923.882202
6147.656405	1.588370	0.049669	3347.062012
6147.657370	1.545106	0.049669	4838.089355
6147.658273	1.503505	0.049669	6195.753906
6147.659201	1.095212	0.049669	7212.110840
6147.660094	0.122179	0.049669	7321.216797
6147.661045	0.085778	0.049669	7402.791504
6147.661955	0.085767	0.049669	7480.838867
6147.662853	0.085851	0.049669	7557.933105
6147.663797	0.085807	0.049669	7638.934570
6147.664700	0.085880	0.049669	7716.484375
6147.665613	0.085865	0.049669	7794.879395
6147.666509	0.085895	0.049669	7871.841309
6147.667448	0.085851	0.049669	7952.455078
6147.668370	0.085884	0.049669	8031.640137
6148.687847	1.129471	0.047172	512.780029
6148.688749	1.599562	0.047172	1955.584717
6148.689643	1.587784	0.047172	3375.063965
6148.690601	1.544462	0.047172	4854.658203
6148.691522	1.502563	0.047172	6238.519043
6148.692444	1.062378	0.047172	7218.031250
6148.693338	0.116949	0.047172	7322.583984
6148.694307	0.085825	0.047172	7405.748535
6148.695217	0.085898	0.047172	7483.916016
6148.696111	0.085898	0.047172	7560.708984
6148.697050	0.085880	0.047172	7641.350586
6148.697965	0.085836	0.047172	7719.890625
6148.698886	0.085902	0.047172	7799.006348
6148.699772	0.085847	0.047172	7875.066895
6148.700729	0.085833	0.047172	7957.208496
6148.701649	0.085800	0.047172	8036.144043
6149.723081	1.096128	0.049903	480.104004
6149.724030	1.600151	0.049903	1998.647705
6149.724976	1.584148	0.049903	3497.251465
6149.725902	1.542261	0.049903	4925.384766
6149.726805	1.500824	0.049903	6280.628906
6149.727765	0.957158	0.049903	7199.500977
6149.728708	0.100272	0.049903	7294.057617
6149.729606	0.085829	0.049903	7371.131836
6149.730524	0.085825	0.049903	7449.919434
6149.731463	0.085942	0.049903	7530.619141
6149.732375	0.085895	0.049903	7608.955078
6149.733263	0.085836	0.049903	7685.177734
6149.734221	0.085898	0.049903	7767.468262
6149.735163	0.085906	0.049903	7848.391602
6149.736052	0.085876	0.049903	7924.735840
6149.736967	0.085891	0.049903	8003.326172
6150.755801	1.102134	0.047611	488.245239
6150.756696	1.598430	0.047611	1918.840210
6150.757656	1.586221	0.047611	3441.612305
6150.758581	1.544374	0.047611	4870.158203
6150.759474	1.503300	0.047611	6212.604492
6150.760406	1.066736	0.047611	7206.802246
6150.761352	0.111877	0.047611	7312.638184
6150.762268	0.085774	0.047611	7391.207031
6150.763168	0.085898	0.047611	7468.515625
6150.764120	0.085818	0.047611	7550.214355
6150.765032	0.085865	0.047611	7628.523437
6150.765957	0.085844	0.047611	7707.928711
6150.766847	0.085876	0.047611	7784.358887
6150.767781	0.085862	0.047611	7864.553711
6150.768717	0.085836	0.047611	7944.896484
6150.769609	0.085880	0.047611	8021.501465
6151.791602	1.128874	0.050616	532.828735
6151.792508	1.600979	0.050616	1983.315674
6151.793405	1.586788	0.050616	3406.664795
6151.794361	1.543532	0.050616	4882.280762
6151.795303	1.501208	0.050616	6296.418945
6151.796208	1.030166	0.050616	7228.719238
6151.797135	0.112064	0.050616	7332.602539
6151.798073	0.085844	0.050616	7413.123535
6151.798984	0.085865	0.050616	7491.347168
6151.799881	0.085876	0.050616	7568.378418
6151.800820	0.085854	0.050616	7648.995605
6151.801760	0.085840	0.050616	7729.685059
6151.802662	0.085964	0.050616	7807.225098
6151.803572	0.085935	0.050616	7885.425781
6151.804506	0.085957	0.050616	7965.709473
6151.805444	0.085909	0.050616	8046.292480
6152.820733	1.125344	0.048690	546.917297
6152.821666	1.602209	0.048690	2041.778809
6152.822586	1.584086	0.048690	3499.137695
6152.823491	1.543129	0.048690	4895.668945
6152.824429	1.500681	0.048690	6303.307617
6152.825383	0.954478	0.048690	7213.879395
6152.826282	0.102667	0.048690	7306.177246
6152.827193	0.085789	0.048690	7384.330566
6152.828122	0.085891	0.048690	7464.123535
6152.829047	0.085972	0.048690	7543.647461
6152.829950	0.085935	0.048690	7621.246582
6152.830870	0.085931	0.048690	7700.303223
6152.831814	0.085906	0.048690	7781.398437
6152.832745	0.085898	0.048690	7861.370117
6152.833636	0.085887	0.048690	7937.895996
6152.834555	0.085917	0.048690	8016.853516
6153.861105	1.121221	0.050906	538.185913
6153.862056	1.602019	0.050906	2061.706055
6153.862982	1.583558	0.050906	3528.081055
6153.863882	1.542286	0.050906	4916.138672
6153.864832	1.499982	0.050906	6341.121094
6153.865772	0.926177	0.050906	7211.727051
6153.866691	0.098965	0.050906	7302.675781
6153.867577	0.085818	0.050906	7378.710449
6153.868530	0.085931	0.050906	7460.603027
6153.869465	0.085800	0.050906	7540.825684
6153.870355	0.085873	0.050906	7617.252441
6153.871276	0.085811	0.050906	7696.284180
6153.872219	0.085920	0.050906	7777.307129
6153.873134	0.085913	0.050906	7855.917480
6153.874028	0.085803	0.050906	7932.625488
6153.874981	0.085778	0.050906	8014.371582
6154.886110	1.124388	0.049319	503.726013
6154.887017	1.599968	0.049319	1954.897217
6154.887911	1.587279	0.049319	3373.924805
6154.888871	1.544897	0.049319	4857.026367
6154.889783	1.503106	0.049319	6227.858398
6154.890689	1.088024	0.049319	7213.607910
6154.891631	0.119817	0.049319	7326.475586
6154.892534	0.085891	0.049319	7404.035156
6154.893436	0.085898	0.049319	7481.515625
6154.894323	0.085873	0.049319	7557.684570
6154.895267	0.086008	0.049319	7638.876465
6154.896164	0.085913	0.049319	7715.940430
6154.897071	0.085935	0.049319	7793.883301
6154.897962	0.085902	0.049319	7870.421875
6154.898910	0.085975	0.049319	7951.926270
6154.899816	0.085895	0.049319	8029.747070
6155.929570	1.122074	0.052058	510.543671
6155.930471	1.599463	0.052058	1951.659790
6155.931418	1.586272	0.052058	3453.859375
6155.932336	1.544088	0.052058	4871.332031
6155.933247	1.502080	0.052058	6239.727051
6155.934153	1.074225	0.052058	7212.974609
6155.935088	0.112969	0.052058	7318.600586
6155.935990	0.085785	0.052058	7395.978516
6155.936893	0.085811	0.052058	7473.465332
6155.937778	0.085778	0.052058	7549.378418
6155.938724	0.085847	0.052058	7630.589844
6155.939629	0.085763	0.052058	7708.205078
6155.940526	0.085807	0.052058	7785.173828
6155.941469	0.085829	0.052058	7866.110352
6155.942368	0.085898	0.052058	7943.333008
6155.943259	0.085814	0.052058	8019.793457
6156.952529	1.111194	0.049987	493.370087
6156.953437	1.599174	0.049987	1945.419678
6156.954329	1.587704	0.049987	3361.651367
6156.955302	1.544414	0.049987	4864.366211
6156.956215	1.503018	0.049987	6236.621094
6156.957124	1.082000	0.049987	7220.158691
6156.958060	0.119271	0.049987	7331.796387
6156.958958	0.085917	0.049987	7408.949707
6156.959855	0.085825	0.049987	7485.935059
6156.960740	0.085950	0.049987	7562.000488
6156.961679	0.085950	0.049987	7642.707031
6156.962584	0.085942	0.049987	7720.484863
6156.963491	0.085975	0.049987	7798.464355
6156.964379	0.085939	0.049987	7874.777832
6156.965329	0.085997	0.049987	7956.475098
6156.966236	0.085891	0.049987	8034.378418
6157.998088	1.160874	0.054358	581.597900
6157.999008	1.602623	0.054358	2056.011230
6157.999919	1.584694	0.054358	3499.666992
6158.000814	1.543374	0.054358	4880.986816
6158.001779	1.500176	0.054358	6328.656250
6158.002702	0.984924	0.054358	7237.741211
6158.003594	0.107007	0.054358	7333.191406
6158.004519	0.085792	0.054358	7412.549316
6158.005424	0.085913	0.054358	7490.300781
6158.006325	0.085891	0.054358	7567.688477
6158.007223	0.085924	0.054358	7644.848145
6158.008153	0.085968	0.054358	7724.798340
6158.009057	0.085858	0.054358	7802.414062
6158.009958	0.085789	0.054358	7879.709473
6158.010847	0.085924	0.054358	7956.096191
6158.011777	0.085975	0.054358	8036.053223
6159.017989	1.149503	0.049299	567.854614
6159.018905	1.602206	0.049299	2035.475098
6159.019808	1.585829	0.049299	3467.478516
6159.020702	1.544561	0.049299	4848.315430
6159.021651	1.501824	0.049299	6273.545898
6159.022571	1.038618	0.049299	7229.074707
6159.023463	0.113119	0.049299	7329.976562
6159.024387	0.085891	0.049299	7409.339844
6159.025305	0.085990	0.049299	7488.278809
6159.026211	0.085880	0.049299	7566.086426
6159.027110	0.085844	0.049299	7643.259766
6159.028060	0.085909	0.049299	7724.873535
6159.028962	0.085902	0.049299	7802.357422
6159.029854	0.085924	0.049299	7879.001465
6159.030740	0.085931	0.049299	7955.136719
6159.031672	0.085972	0.049299	8035.262207
6160.067552	1.112472	0.054197	511.737091
6160.068493	1.601411	0.054197	2018.664917
6160.069403	1.585279	0.054197	3461.269287
6160.070306	1.544070	0.054197	4855.564453
6160.071249	1.501871	0.054197	6271.829102
6160.072173	1.031195	0.054197	7224.653320
6160.073072	0.111193	0.054197	7324.615723
6160.073962	0.085847	0.054197	7401.019531
6160.074902	0.086052	0.054197	7481.908691
6160.075809	0.085968	0.054197	7559.881836
6160.076702	0.085913	0.054197	7636.602051
6160.077620	0.085931	0.054197	7715.487305
6160.078527	0.085939	0.054197	7793.433594
6160.079431	0.085840	0.054197	7871.032715
6160.080326	0.085869	0.054197	7947.885742
6160.081257	0.085942	0.054197	8027.897949
6161.083336	1.091466	0.050016	473.696289
6161.084274	1.598276	0.050016	1972.879517
6161.085189	1.586711	0.050016	3424.720459
6161.086093	1.545692	0.050016	4822.026367
6161.086988	1.504940	0.050016	6168.947754
6161.087950	1.082893	0.050016	7210.690918
6161.088853	0.118993	0.050016	7318.141602
6161.089749	0.085800	0.050016	7395.018066
6161.090642	0.085865	0.050016	7471.695801
6161.091575	0.085924	0.050016	7551.862793
6161.092494	0.085891	0.050016	7630.796875
6161.093398	0.085840	0.050016	7708.395996
6161.094290	0.085847	0.050016	7784.971680
6161.095227	0.085917	0.050016	7865.475586
6161.096119	0.085792	0.050016	7942.002441
6161.097009	0.085876	0.050016	8018.432617
6162.136022	1.099061	0.055071	492.379486
6162.136919	1.599023	0.055071	1926.703613
6162.137846	1.587550	0.055071	3398.362549
6162.138767	1.545535	0.055071	4821.799805
6162.139678	1.503984	0.055071	6191.929687
6162.140571	1.130552	0.055071	7201.512207
6162.141524	0.122531	0.055071	7318.283691
6162.142434	0.085789	0.055071	7396.351074
6162.143335	0.085873	0.055071	7473.722656
6162.144223	0.085858	0.055071	7549.964844
6162.145167	0.085920	0.055071	7631.073730
6162.146073	0.085862	0.055071	7708.864746
6162.146965	0.085935	0.055071	7785.519043
6162.147892	0.085829	0.055071	7865.082520
6162.148803	0.085880	0.055071	7943.319336
6162.149700	0.085862	0.055071	8020.337402
6163.150283	1.095967	0.048815	478.937439
6163.151226	1.598818	0.048815	1986.623047
6163.152145	1.586060	0.048815	3444.211914
6163.153049	1.545029	0.048815	4840.918457
6163.153941	1.504405	0.048815	6182.848145
6163.154920	1.046649	0.048815	7207.517578
6163.155821	0.112720	0.048815	7309.078125
6163.156726	0.085829	0.048815	7386.753418
6163.157621	0.085939	0.048815	7463.668457
6163.158564	0.085880	0.048815	7544.653320
6163.159461	0.085913	0.048815	7621.717285
6163.160349	0.085920	0.048815	7698.014648
6163.161281	0.085854	0.048815	7778.031250
6163.162190	0.085840	0.048815	7856.059570
6163.163087	0.085844	0.048815	7933.061035
6163.163974	0.085895	0.048815	8009.249512
6164.203978	1.102002	0.055873	482.676880
6164.204948	1.602133	0.055873	2036.745483
6164.205860	1.585133	0.055873	3482.386719
6164.206756	1.544363	0.055873	4866.135742
6164.207670	1.502970	0.055873	6239.850098
6164.208603	1.063883	0.055873	7232.453125
6164.209495	0.117012	0.055873	7336.827637
6164.210384	0.085759	0.055873	7413.067871
6164.211308	0.085880	0.055873	7492.420898
6164.212226	0.085789	0.055873	7571.174805
6164.213126	0.085880	0.055873	7648.466797
6164.214020	0.085833	0.055873	7725.201172
6164.214945	0.085858	0.055873	7804.620117
6164.215862	0.085796	0.055873	7883.294922
6164.216776	0.085814	0.055873	7961.729004
6164.217664	0.085865	0.055873	8037.977539
6165.216710	1.097322	0.047768	477.334961
6165.217666	1.598452	0.047768	2005.455200
6165.218592	1.585312	0.047768	3473.454590
6165.219499	1.543854	0.047768	4873.729980
6165.220395	1.503329	0.047768	6220.712891
6165.221355	1.035004	0.047768	7214.316406
6165.222267	0.110739	0.047768	7315.310059
6165.223166	0.085836	0.047768	7392.476562
6165.224052	0.085876	0.047768	7468.562988
6165.224991	0.085898	0.047768	7549.221680
6165.225881	0.085869	0.047768	7625.645020
6165.226771	0.085862	0.047768	7702.062012
6165.227699	0.085917	0.047768	7781.792969
6165.228614	0.085778	0.047768	7860.279297
6165.229512	0.085854	0.047768	7937.376465
6165.230400	0.085898	0.047768	8013.654297
6166.271966	1.116306	0.055385	498.988861
6166.272877	1.599492	0.055385	1956.126221
6166.273771	1.587935	0.055385	3375.739746
6166.274724	1.545879	0.055385	4848.962402
6166.275641	1.503442	0.055385	6227.619141
6166.276572	1.065330	0.055385	7219.440918
6166.277463	0.118542	0.055385	7325.062500
6166.278401	0.085895	0.055385	7405.631836
6166.279318	0.085854	0.055385	7484.360352
6166.280242	0.085887	0.055385	7563.720215
6166.281131	0.085975	0.055385	7640.152344
6166.282083	0.085884	0.055385	7721.913574
6166.282985	0.085847	0.055385	7799.347656
6166.283875	0.085917	0.055385	7875.813477
6166.284817	0.085865	0.055385	7956.698730
6166.285721	0.085902	0.055385	8034.354004
6167.283652	1.091656	0.048030	472.687256
6167.284613	1.598844	0.048030	2009.176270
6167.285521	1.586089	0.048030	3449.344727
6167.286447	1.544125	0.048030	4879.204102
6167.287341	1.502922	0.048030	6222.816406
6167.288308	1.016265	0.048030	7205.544434
6167.289214	0.109307	0.048030	7304.576172
6167.290141	0.085851	0.048030	7384.159668
6167.291035	0.085884	0.048030	7460.939941
6167.291965	0.085884	0.048030	7540.812012
6167.292867	0.085950	0.048030	7618.338867
6167.293755	0.085898	0.048030	7694.616699
6167.294686	0.085909	0.048030	7774.598145
6167.295593	0.085935	0.048030	7852.541016
6167.296507	0.085909	0.048030	7931.062012
6167.297399	0.085854	0.048030	8007.644043
6168.339420	1.122220	0.053935	510.610291
6168.340323	1.600074	0.053935	1955.477539
6168.341266	1.586089	0.053935	3451.159180
6168.342191	1.543667	0.053935	4879.051270
6168.343124	1.501494	0.053935	6279.945312
6168.344031	1.043676	0.053935	7226.559082
6168.344971	0.108347	0.053935	7328.405273
6168.345867	0.085708	0.053935	7405.199707
6168.346760	0.085902	0.053935	7481.910156
6168.347681	0.085917	0.053935	7561.039551
6168.348605	0.085854	0.053935	7640.369141
6168.349505	0.085847	0.053935	7717.631836
6168.350394	0.085950	0.053935	7794.041016
6168.351328	0.085909	0.053935	7874.280273
6168.352236	0.085873	0.053935	7952.252930
6168.353155	0.085880	0.053935	8031.176758
6169.351640	1.118672	0.047196	504.521027
6169.352546	1.599756	0.047196	1953.899780
6169.353440	1.588110	0.047196	3373.670410
6169.354398	1.545637	0.047196	4854.390625
6169.355314	1.503311	0.047196	6231.422852
6169.356249	1.055848	0.047196	7218.641113
6169.357135	0.117480	0.047196	7322.729004
6169.358073	0.085767	0.047196	7403.178223
6169.358977	0.085792	0.047196	7480.734375
6169.359901	0.085902	0.047196	7560.107910
6169.360797	0.085913	0.047196	7637.085937
6169.361747	0.085847	0.047196	7718.640625
6169.362648	0.085880	0.047196	7796.018555
6169.363537	0.085898	0.047196	7872.382324
6169.364471	0.085990	0.047196	7952.696777
6169.365374	0.085807	0.047196	8030.180176
6170.406860	1.105181	0.051498	487.384644
6170.407834	1.601385	0.051498	2047.134155
6170.408737	1.585074	0.051498	3478.456543
6170.409649	1.543528	0.051498	4886.153809
6170.410550	1.502043	0.051498	6239.495117
6170.411513	1.012690	0.051498	7214.715820
6170.412419	0.108149	0.051498	7312.699219
6170.413309	0.085836	0.051498	7389.093262
6170.414243	0.085909	0.051498	7469.332520
6170.415154	0.085825	0.051498	7547.519043
6170.416071	0.085924	0.051498	7626.311523
6170.416962	0.085844	0.051498	7702.797852
6170.417905	0.085851	0.051498	7783.755371
6170.418807	0.085770	0.051498	7861.120117
6170.419715	0.085800	0.051498	7939.025879
6170.420609	0.085865	0.051498	8015.789551
6171.420110	1.105254	0.046430	490.732758
6171.421063	1.601309	0.046430	2016.779907
6171.421984	1.584719	0.046430	3476.306152
6171.422908	1.543077	0.046430	4902.109375
6171.423814	1.501626	0.046430	6262.582520
6171.424781	0.985573	0.046430	7215.631348
6171.425684	0.105692	0.046430	7311.071289
6171.426574	0.085840	0.046430	7387.468750
6171.427519	0.085851	0.046430	7468.597656
6171.428423	0.085840	0.046430	7546.196777
6171.429342	0.085953	0.046430	7625.187988
6171.430233	0.085909	0.046430	7701.733398
6171.431177	0.085924	0.046430	7782.845703
6171.432080	0.085891	0.046430	7860.405273
6171.433000	0.085847	0.046430	7939.384766
6171.433893	0.085884	0.046430	8016.079102
6172.473827	1.117961	0.052046	517.616150
6172.474764	1.601418	0.052046	2018.145264
6172.475668	1.585389	0.052046	3451.337402
6172.476565	1.545146	0.052046	4837.333984
6172.477508	1.502527	0.052046	6254.216797
6172.478423	1.050187	0.052046	7215.137695
6172.479354	0.109189	0.052046	7316.792969
6172.480246	0.085847	0.052046	7393.368652
6172.481188	0.085876	0.052046	7474.264160
6172.482087	0.085913	0.052046	7551.500000
6172.482974	0.085902	0.052046	7627.695312
6172.483900	0.085898	0.052046	7707.237305
6172.484823	0.085854	0.052046	7786.480957
6172.485726	0.085873	0.052046	7864.023926
6172.486618	0.085913	0.052046	7940.658203
6172.487544	0.086019	0.052046	8020.312012
6173.488612	1.132031	0.047288	515.074219
6173.489513	1.599902	0.047288	1956.586304
6173.490424	1.587173	0.047288	3402.500732
6173.491370	1.544586	0.047288	4863.679199
6173.492273	1.503318	0.047288	6221.175293
6173.493173	1.101383	0.047288	7212.419922
6173.494119	0.118180	0.047288	7324.218262
6173.495024	0.085803	0.047288	7401.870117
6173.495943	0.085898	0.047288	7480.810547
6173.496838	0.085840	0.047288	7557.637207
6173.497804	0.085906	0.047288	7640.622070
6173.498711	0.085854	0.047288	7718.492187
6173.499600	0.085946	0.047288	7794.898437
6173.500532	0.085862	0.047288	7874.921875
6173.501441	0.085876	0.047288	7952.983398
6173.502332	0.085789	0.047288	8029.420898
6174.540796	1.162727	0.051144	566.248108
6174.541713	1.601528	0.051144	2034.849609
6174.542632	1.584946	0.051144	3491.415283
6174.543536	1.543184	0.051144	4886.453125
6174.544497	1.500315	0.051144	6328.255859
6174.545407	1.004092	0.051144	7241.979492
6174.546296	0.109391	0.051144	7339.228027
6174.547227	0.085891	0.051144	7419.192871
6174.548140	0.085920	0.051144	7497.638184
6174.549059	0.085847	0.051144	7576.531738
6174.549950	0.085898	0.051144	7653.067383
6174.550882	0.085887	0.051144	7733.114258
6174.551783	0.085873	0.051144	7810.485840
6174.552711	0.085986	0.051144	7890.281250
6174.553599	0.085898	0.051144	7966.559082
6174.554559	0.085862	0.051144	8048.986328
6175.556041	1.099131	0.048666	480.320190
6175.556997	1.601832	0.048666	2011.671875
6175.557919	1.585221	0.048666	3473.245605
6175.558825	1.543993	0.048666	4872.103027
6175.559722	1.502567	0.048666	6219.905762
6175.560687	1.025361	0.048666	7209.379395
6175.561583	0.111405	0.048666	7309.198242
6175.562471	0.085781	0.048666	7385.372070
6175.563417	0.085917	0.048666	7466.649414
6175.564327	0.085840	0.048666	7544.763672
6175.565224	0.085990	0.048666	7621.896484
6175.566115	0.085844	0.048666	7698.382812
6175.567047	0.085983	0.048666	7778.518555
6175.567944	0.085898	0.048666	7855.569336
6175.568862	0.085895	0.048666	7934.420898
6175.569754	0.085891	0.048666	8011.035645
6176.607699	1.106862	0.050990	492.553406
6176.608599	1.599181	0.050990	1931.816162
6176.609493	1.587883	0.050990	3351.383789
6176.610460	1.544795	0.050990	4845.200195
6176.611378	1.503087	0.050990	6225.034180
6176.612280	1.103800	0.050990	7220.661621
6176.613218	0.123333	0.050990	7336.347656
6176.614127	0.085734	0.050990	7414.279297
6176.615023	0.085880	0.050990	7491.228027
6176.615907	0.085796	0.050990	7567.071777
6176.616849	0.085869	0.050990	7647.960449
6176.617764	0.085796	0.050990	7726.463867
6176.618669	0.085873	0.050990	7804.178711
6176.619556	0.085811	0.050990	7880.292480
6176.620516	0.085865	0.050990	7962.723145
6176.621417	0.085836	0.050990	8040.061523
6177.625041	1.098109	0.049355	483.168030
6177.625938	1.597969	0.049355	1916.546143
6177.626909	1.585843	0.049355	3456.400146
6177.627823	1.544117	0.049355	4867.723633
6177.628720	1.503252	0.049355	6216.140625
6177.629656	1.051044	0.049355	7199.917480
6177.630579	0.113767	0.049355	7304.924316
6177.631479	0.085825	0.049355	7382.166992
6177.632367	0.085953	0.049355	7458.493652
6177.633295	0.085964	0.049355	7538.268555
6177.634208	0.085752	0.049355	7616.560059
6177.635102	0.085931	0.049355	7693.382812
6177.635994	0.085873	0.049355	7769.981445
6177.636941	0.085869	0.049355	7851.299316
6177.637845	0.085825	0.049355	7928.885254
6177.638736	0.085906	0.049355	8005.427246
6178.675147	1.099790	0.050052	485.007385
6178.676039	1.598082	0.050052	1910.496582
6178.677016	1.585906	0.050052	3459.926514
6178.677918	1.544429	0.050052	4853.000977
6178.678812	1.503655	0.050052	6197.268555
6178.679765	1.063561	0.050052	7210.841797
6178.680681	0.114082	0.050052	7315.340820
6178.681584	0.085847	0.050052	7392.860840
6178.682473	0.085884	0.050052	7469.211426
6178.683429	0.085961	0.050052	7551.389648
6178.684323	0.085851	0.050052	7628.140137
6178.685238	0.085851	0.050052	7706.693848
6178.686135	0.085928	0.050052	7783.770996
6178.687071	0.085920	0.050052	7864.192383
6178.687972	0.085869	0.050052	7941.560547
6178.688864	0.085931	0.050052	8018.211426
6179.693003	1.109740	0.048545	490.505096
6179.693988	1.602689	0.048545	2069.154053
6179.694899	1.584302	0.048545	3512.452881
6179.695797	1.543312	0.048545	4898.346680
6179.696743	1.501249	0.048545	6318.527832
6179.697677	0.983866	0.048545	7237.458496
6179.698602	0.103597	0.048545	7333.286133
6179.699490	0.085851	0.048545	7409.521484
6179.700423	0.085902	0.048545	7489.667969
6179.701342	0.085778	0.048545	7568.497559
6179.702231	0.085884	0.048545	7644.848145
6179.703148	0.085920	0.048545	7723.637207
6179.704081	0.085811	0.048545	7803.698242
6179.704980	0.085833	0.048545	7880.861816
6179.705869	0.085895	0.048545	7957.222168
6179.706811	0.085887	0.048545	8038.127930
6180.742103	1.100790	0.050543	487.649872
6180.742997	1.598236	0.050543	1916.472900
6180.743953	1.585770	0.050543	3432.469238
6180.744874	1.544352	0.050543	4854.817383
6180.745771	1.503717	0.050543	6203.651367
6180.746729	1.046624	0.050543	7206.316895
6180.747636	0.112072	0.050543	7307.965820
6180.748558	0.085796	0.050543	7387.069824
6180.749449	0.085953	0.050543	7463.654297
6180.750402	0.085873	0.050543	7545.491211
6180.751299	0.085858	0.050543	7622.505859
6180.752187	0.085898	0.050543	7698.783691
6180.753118	0.085953	0.050543	7778.806152
6180.754041	0.085851	0.050543	7858.046387
6180.754949	0.085851	0.050543	7935.999023
6180.755840	0.085847	0.050543	8012.488770
6181.760983	1.116196	0.049266	503.404510
6181.761918	1.601045	0.049266	2000.381470
6181.762810	1.586404	0.049266	3415.453613
6181.763777	1.543341	0.049266	4907.864258
6181.764678	1.502106	0.049266	6261.261719
6181.765613	1.029379	0.049266	7223.730957
6181.766502	0.113401	0.049266	7324.544434
6181.767447	0.085825	0.049266	7405.649414
6181.768377	0.085818	0.049266	7485.459961
6181.769276	0.085895	0.049266	7562.679199
6181.770213	0.085891	0.049266	7643.159180
6181.771121	0.085785	0.049266	7721.051758
6181.772036	0.085884	0.049266	7799.635254
6181.772936	0.085880	0.049266	7876.927246
6181.773884	0.085833	0.049266	7958.296387
6181.774804	0.085854	0.049266	8037.282715
6182.809027	1.090276	0.050422	470.999176
6182.809973	1.597745	0.050422	1982.466187
6182.810899	1.585232	0.050422	3450.390869
6182.811833	1.543158	0.050422	4891.700195
6182.812734	1.502388	0.050422	6245.351562
6182.813683	1.025204	0.050422	7218.270020
6182.814605	0.107904	0.050422	7317.757324
6182.815522	0.085876	0.050422	7396.505859
6182.816414	0.085865	0.050422	7473.097656
6182.817374	0.085858	0.050422	7555.521484
6182.818293	0.085975	0.050422	7634.532715
6182.819187	0.085935	0.050422	7711.358887
6182.820111	0.085884	0.050422	7790.715332
6182.821026	0.085906	0.050422	7869.319336
6182.821945	0.085913	0.050422	7948.273437
6182.822836	0.085902	0.050422	8024.812012
6183.827942	1.127805	0.050217	516.534729
6183.828851	1.599884	0.050217	1970.829346
6183.829756	1.586301	0.050217	3406.431885
6183.830705	1.543839	0.050217	4871.535156
6183.831636	1.501802	0.050217	6269.712402
6183.832535	1.060367	0.050217	7222.982422
6183.833487	0.114368	0.050217	7331.860352
6183.834399	0.085800	0.050217	7410.109375
6183.835319	0.085796	0.050217	7489.041504
6183.836213	0.085873	0.050217	7565.812012
6183.837166	0.085891	0.050217	7647.666016
6183.838087	0.085917	0.050217	7726.795410
6183.838981	0.085928	0.050217	7803.614746
6183.839890	0.085833	0.050217	7881.636719
6183.840839	0.085873	0.050217	7963.129883
6183.841753	0.085939	0.050217	8041.677734
6184.876501	1.127289	0.051011	507.279968
6184.877475	1.602261	0.051011	2067.881836
6184.878400	1.583650	0.051011	3532.757812
6184.879325	1.541935	0.051011	4959.047363
6184.880222	1.500546	0.051011	6305.036621
6184.881176	0.954554	0.051011	7215.681641
6184.882119	0.100975	0.051011	7310.901367
6184.883018	0.085876	0.051011	7388.104492
6184.883932	0.085876	0.051011	7466.595703
6184.884865	0.085873	0.051011	7546.714844
6184.885779	0.085913	0.051011	7625.239258
6184.886668	0.085789	0.051011	7701.505371
6184.887612	0.085836	0.051011	7782.534668
6184.888549	0.085920	0.051011	7863.041992
6184.889447	0.085851	0.051011	7940.136230
6184.890373	0.085847	0.051011	8019.630859
